time /s	I /nA	E /V
0.100	3.584	0.099
0.200	-20.098	0.099
0.300	-5.640	0.099
0.400	-6.613	0.099
0.500	8.794	0.099
0.600	-11.317	0.099
0.700	-2.371	0.099
0.800	-19.353	0.099
0.900	-8.556	0.099
1.000	-0.207	0.099
1.100	-1.405	0.099
1.200	5.267	0.099
1.300	-19.676	0.099
1.400	-5.222	0.099
1.500	-10.996	0.099
1.600	5.114	0.099
1.700	-23.436	0.099
1.800	4.902	0.099
1.900	7.076	0.099
2.000	-15.845	0.099
2.100	-8.066	0.099
2.200	3.946	0.099
2.300	-4.295	0.099
2.400	-4.949	0.099
2.500	-16.533	0.099
2.600	-8.483	0.099
2.700	-3.934	0.099
2.800	-7.169	0.099
2.900	5.900	0.099
3.000	-8.960	0.099
3.100	2.825	0.099
3.200	-9.647	0.099
3.300	-10.348	0.099
3.400	-9.661	0.099
3.500	-14.857	0.099
3.600	-0.459	0.099
3.700	-13.967	0.100
3.800	-6.188	0.099
3.900	-3.093	0.099
4.000	9.757	0.099
4.100	-7.786	0.099
4.200	1.458	0.099
4.300	5.700	0.099
4.400	-15.712	0.099
4.500	-17.898	0.099
4.600	-15.165	0.099
4.700	6.184	0.099
4.800	-3.951	0.099
4.900	-10.478	0.099
5.000	-1.653	0.099
5.100	-11.173	0.099
5.200	-9.956	0.099
5.300	-7.361	0.099
5.400	-7.209	0.099
5.500	-6.900	0.099
5.600	-10.481	0.099
5.700	-8.619	0.099
5.800	-6.664	0.099
5.900	3.038	0.099
6.000	-6.077	0.099
6.100	-7.395	0.099
6.200	-4.036	0.099
6.300	-9.142	0.099
6.400	-12.628	0.099
6.500	-4.384	0.099
6.600	-4.303	0.099
6.700	-10.972	0.099
6.800	-7.220	0.099
6.900	-2.723	0.099
7.000	-16.340	0.099
7.100	3.312	0.099
7.200	-10.749	0.099
7.300	-13.959	0.099
7.400	8.110	0.100
7.500	-18.148	0.099
7.600	-17.343	0.099
7.700	7.673	0.099
7.800	-12.415	0.099
7.900	-27.119	0.099
8.000	-4.602	0.099
8.100	2.715	0.099
8.200	4.986	0.099
8.300	-6.764	0.099
8.400	-14.823	0.099
8.500	5.882	0.099
8.600	-0.120	0.100
8.700	-23.375	0.100
8.800	1.510	0.100
8.900	-6.838	0.100
9.000	7.419	0.099
9.100	-10.867	0.099
9.200	-17.143	0.100
9.300	1.668	0.099
9.400	-25.683	0.099
9.500	-6.699	0.099
9.600	0.562	0.099
9.700	-12.241	0.099
9.800	-14.274	0.099
9.900	-3.594	0.100
10.000	-2.585	0.099
10.100	-14.722	0.099
10.200	-11.578	0.099
10.300	0.232	0.099
10.400	1.942	0.099
10.500	-16.099	0.099
10.600	-8.849	0.100
10.700	-23.829	0.099
10.800	0.266	0.099
10.900	-6.914	0.099
11.000	-0.110	0.099
11.100	-15.922	0.099
11.200	-3.120	0.099
11.300	-8.301	0.100
11.400	-7.566	0.099
11.500	-4.395	0.099
11.600	-21.904	0.099
11.700	-4.999	0.099
11.800	-10.457	0.099
11.900	5.663	0.099
12.000	-5.298	0.099
12.100	-12.215	0.099
12.200	-5.617	0.099
12.300	-5.176	0.099
12.400	-0.156	0.099
12.500	1.952	0.099
12.600	-3.899	0.099
12.700	11.448	0.099
12.800	-9.846	0.099
12.900	-2.993	0.099
13.000	-11.006	0.099
13.100	-8.826	0.099
13.200	-2.707	0.099
13.300	-6.217	0.100
13.400	-3.145	0.099
13.500	-9.339	0.099
13.600	-0.879	0.099
13.700	-4.284	0.099
13.800	-16.864	0.099
13.900	-10.228	0.099
14.000	2.255	0.099
14.100	-1.190	0.099
14.200	-8.879	0.099
14.300	-2.862	0.099
14.400	-0.611	0.099
14.500	-7.151	0.099
14.600	-2.999	0.100
14.700	-12.087	0.100
14.800	-12.286	0.099
14.900	6.073	0.099
15.000	-17.277	0.099
15.100	7.102	0.099
15.200	-5.232	0.099
15.300	-8.441	0.099
15.400	2.561	0.099
15.500	0.628	0.099
15.600	-3.684	0.100
15.700	-5.550	0.099
15.800	-13.179	0.099
15.900	-3.984	0.099
16.000	5.855	0.099
16.100	-0.696	0.099
16.200	0.780	0.099
16.300	-9.329	0.099
16.400	-15.813	0.099
16.500	0.502	0.099
16.600	-7.210	0.099
16.700	-5.001	0.100
16.800	-6.453	0.099
16.900	-2.192	0.099
17.000	-7.756	0.099
17.100	-3.309	0.099
17.200	-2.342	0.099
17.300	-2.778	0.099
17.400	-10.182	0.099
17.500	-8.822	0.099
17.600	-8.333	0.099
17.700	0.788	0.099
17.800	-6.628	0.099
17.900	-14.273	0.099
18.000	-11.253	0.099
18.100	9.384	0.099
18.200	-8.433	0.099
18.300	-5.436	0.099
18.400	-20.581	0.099
18.500	-3.152	0.099
18.600	2.877	0.099
18.700	10.083	0.099
18.800	-14.063	0.099
18.900	-12.819	0.099
19.000	-2.913	0.099
19.100	-4.008	0.099
19.200	-15.032	0.099
19.300	-3.209	0.099
19.400	3.797	0.099
19.500	-0.961	0.099
19.600	-2.972	0.099
19.700	-0.436	0.099
19.800	-6.353	0.099
19.900	-3.816	0.099
20.000	0.751	0.099
20.100	-13.330	0.099
20.200	1.204	0.099
20.300	-9.467	0.099
20.400	-5.316	0.099
20.500	-3.950	0.099
20.600	-9.219	0.099
20.700	3.426	0.099
20.800	-4.480	0.099
20.900	-9.740	0.099
21.000	0.293	0.100
21.100	-23.206	0.100
21.200	10.648	0.100
21.300	-2.376	0.099
21.400	1.899	0.099
21.500	2.317	0.099
21.600	1.367	0.099
21.700	-12.587	0.100
21.800	-6.182	0.099
21.900	-0.794	0.099
22.000	-4.023	0.099
22.100	12.406	0.100
22.200	-1.900	0.099
22.300	-7.867	0.099
22.400	-9.188	0.099
22.500	2.874	0.099
22.600	-7.209	0.099
22.700	-15.046	0.099
22.800	-4.045	0.099
22.900	-11.275	0.099
23.000	-8.138	0.100
23.100	-34.061	0.099
23.200	0.210	0.099
23.300	-15.120	0.099
23.400	1.778	0.099
23.500	1.538	0.099
23.600	-10.979	0.099
23.700	-0.214	0.100
23.800	3.562	0.099
23.900	-9.991	0.099
24.000	-16.703	0.099
24.100	11.703	0.099
24.200	-4.448	0.099
24.300	-10.357	0.099
24.400	3.996	0.099
24.500	-9.105	0.099
24.600	-9.545	0.099
24.700	-13.688	0.099
24.800	0.755	0.099
24.900	-13.325	0.099
25.000	-10.114	0.099
25.100	0.434	0.099
25.200	-9.845	0.099
25.300	-16.266	0.099
25.400	7.211	0.099
25.500	-0.090	0.099
25.600	-9.530	0.099
25.700	4.855	0.099
25.800	0.739	0.099
25.900	-6.726	0.099
26.000	0.087	0.099
26.100	0.575	0.099
26.200	-4.642	0.099
26.300	-4.365	0.099
26.400	-6.598	0.099
26.500	-19.179	0.099
26.600	-1.266	0.099
26.700	-11.511	0.099
26.800	-5.081	0.099
26.900	-2.701	0.099
27.000	-6.672	0.099
27.100	1.313	0.099
27.200	-2.954	0.099
27.300	-4.320	0.099
27.400	-8.479	0.099
27.500	-1.345	0.099
27.600	-9.751	0.099
27.700	8.136	0.099
27.800	-23.329	0.099
27.900	-17.963	0.099
28.000	0.893	0.099
28.100	-7.131	0.099
28.200	9.485	0.099
28.300	-5.076	0.099
28.400	-2.638	0.100
28.500	-2.147	0.099
28.600	-5.009	0.099
28.700	-13.343	0.099
28.800	2.908	0.099
28.900	0.080	0.099
29.000	-3.759	0.100
29.100	-6.823	0.099
29.200	-5.402	0.100
29.300	-5.954	0.099
29.400	-4.970	0.099
29.500	-16.908	0.099
29.600	10.539	0.099
29.700	-5.593	0.099
29.800	-4.040	0.099
29.900	6.926	0.099
30.000	-7.680	0.099
30.100	-9.479	0.099
30.200	5.847	0.099
30.300	3.657	0.099
30.400	9.085	0.099
30.500	-10.115	0.099
30.600	0.757	0.100
30.700	-2.357	0.099
30.800	13.724	0.099
30.900	3.264	0.099
31.000	-10.080	0.099
31.100	4.323	0.099
31.200	-3.584	0.099
31.300	13.861	0.099
31.400	8.194	0.099
31.500	13.542	0.099
31.600	-1.190	0.099
31.700	10.465	0.099
31.800	8.354	0.099
31.900	18.326	0.099
32.000	8.805	0.099
32.100	4.080	0.100
32.200	9.530	0.099
32.300	22.248	0.099
32.400	15.194	0.099
32.500	3.484	0.099
32.600	16.505	0.099
32.700	3.814	0.099
32.800	18.983	0.100
32.900	12.274	0.099
33.000	14.884	0.099
33.100	11.856	0.099
33.200	34.225	0.100
33.300	5.242	0.099
33.400	15.484	0.099
33.500	10.270	0.099
33.600	3.806	0.099
33.700	15.186	0.099
33.800	19.100	0.099
33.900	22.564	0.099
34.000	18.473	0.099
34.100	21.295	0.100
34.200	19.396	0.099
34.300	25.394	0.099
34.400	21.831	0.099
34.500	20.456	0.099
34.600	12.933	0.099
34.700	21.992	0.099
34.800	14.882	0.099
34.900	-4.245	0.099
35.000	22.069	0.099
35.100	38.496	0.099
35.200	23.290	0.099
35.300	11.976	0.099
35.400	27.183	0.099
35.500	20.159	0.099
35.600	18.899	0.099
35.700	20.909	0.099
35.800	23.505	0.099
35.900	14.055	0.099
36.000	39.575	0.099
36.100	28.154	0.100
36.200	21.579	0.099
36.300	26.445	0.099
36.400	25.856	0.099
36.500	48.880	0.099
36.600	28.493	0.099
36.700	32.874	0.099
36.800	21.431	0.099
36.900	20.714	0.099
37.000	26.634	0.099
37.100	15.074	0.099
37.200	17.957	0.099
37.300	27.166	0.099
37.400	21.992	0.099
37.500	21.816	0.099
37.600	31.992	0.099
37.700	23.647	0.099
37.800	7.713	0.099
37.900	39.037	0.099
38.000	38.467	0.099
38.100	41.396	0.099
38.200	1.738	0.099
38.300	21.192	0.099
38.400	26.392	0.099
38.500	25.805	0.099
38.600	26.169	0.099
38.700	26.775	0.099
38.800	19.470	0.099
38.900	21.562	0.099
39.000	34.995	0.099
39.100	24.682	0.099
39.200	34.253	0.099
39.300	6.257	0.099
39.400	16.648	0.099
39.500	15.624	0.099
39.600	24.659	0.099
39.700	30.077	0.099
39.800	30.975	0.099
39.900	27.250	0.099
40.000	19.797	0.099
40.100	9.912	0.099
40.200	21.803	0.099
40.300	30.066	0.099
40.400	24.087	0.100
40.500	17.314	0.099
40.600	28.888	0.099
40.700	24.539	0.099
40.800	21.004	0.099
40.900	17.388	0.099
41.000	20.900	0.099
41.100	23.869	0.099
41.200	18.090	0.099
41.300	14.849	0.099
41.400	16.060	0.099
41.500	37.172	0.099
41.600	16.007	0.099
41.700	1.747	0.100
41.800	38.822	0.099
41.900	21.174	0.099
42.000	31.830	0.099
42.100	21.497	0.099
42.200	10.495	0.099
42.300	19.019	0.099
42.400	13.749	0.099
42.500	23.116	0.099
42.600	26.604	0.099
42.700	23.580	0.099
42.800	7.093	0.099
42.900	18.872	0.099
43.000	10.088	0.099
43.100	9.582	0.099
43.200	28.758	0.099
43.300	28.388	0.099
43.400	38.847	0.099
43.500	26.780	0.099
43.600	19.344	0.099
43.700	18.528	0.099
43.800	11.152	0.099
43.900	17.491	0.099
44.000	29.865	0.099
44.100	25.601	0.099
44.200	32.129	0.099
44.300	4.484	0.099
44.400	20.390	0.099
44.500	13.723	0.099
44.600	30.629	0.099
44.700	23.548	0.099
44.800	22.850	0.099
44.900	16.546	0.099
45.000	12.467	0.099
45.100	30.439	0.099
45.200	10.527	0.099
45.300	8.017	0.099
45.400	28.004	0.099
45.500	25.914	0.099
45.600	29.385	0.099
45.700	27.566	0.099
45.800	14.466	0.099
45.900	12.552	0.099
46.000	11.692	0.099
46.100	17.556	0.099
46.200	14.827	0.099
46.300	24.862	0.099
46.400	21.650	0.100
46.500	24.728	0.099
46.600	28.177	0.099
46.700	10.504	0.099
46.800	14.654	0.099
46.900	30.067	0.099
47.000	17.686	0.099
47.100	6.376	0.099
47.200	31.909	0.099
47.300	16.834	0.099
47.400	16.713	0.100
47.500	13.831	0.099
47.600	32.611	0.099
47.700	16.708	0.099
47.800	28.277	0.099
47.900	32.807	0.099
48.000	16.984	0.099
48.100	17.913	0.099
48.200	32.170	0.099
48.300	26.666	0.099
48.400	12.805	0.099
48.500	11.411	0.099
48.600	10.677	0.099
48.700	25.062	0.099
48.800	20.659	0.099
48.900	26.926	0.099
49.000	11.864	0.099
49.100	25.620	0.099
49.200	13.172	0.099
49.300	9.930	0.099
49.400	21.416	0.099
49.500	17.070	0.099
49.600	24.976	0.099
49.700	16.947	0.099
49.800	6.923	0.099
49.900	17.939	0.099
50.000	35.425	0.099
50.100	2.077	0.099
50.200	19.694	0.099
50.300	22.762	0.099
50.400	16.453	0.100
50.500	6.767	0.099
50.600	12.547	0.099
50.700	28.364	0.099
50.800	17.077	0.099
50.900	35.642	0.099
51.000	17.773	0.099
51.100	9.930	0.099
51.200	22.328	0.099
51.300	14.633	0.099
51.400	16.138	0.099
51.500	18.993	0.099
51.600	19.058	0.099
51.700	17.010	0.099
51.800	21.307	0.099
51.900	15.682	0.099
52.000	18.464	0.099
52.100	21.131	0.099
52.200	24.850	0.099
52.300	28.151	0.099
52.400	3.028	0.099
52.500	22.454	0.099
52.600	15.851	0.099
52.700	16.176	0.099
52.800	20.287	0.099
52.900	10.817	0.099
53.000	13.750	0.099
53.100	16.305	0.099
53.200	23.550	0.099
53.300	24.459	0.099
53.400	16.037	0.099
53.500	12.958	0.099
53.600	8.002	0.099
53.700	14.193	0.099
53.800	14.419	0.099
53.900	19.874	0.099
54.000	27.901	0.099
54.100	30.020	0.099
54.200	15.142	0.099
54.300	27.322	0.099
54.400	21.874	0.100
54.500	23.831	0.099
54.600	11.289	0.099
54.700	6.425	0.099
54.800	18.518	0.099
54.900	18.604	0.099
55.000	6.032	0.099
55.100	33.455	0.099
55.200	26.264	0.099
55.300	27.039	0.099
55.400	22.117	0.099
55.500	25.040	0.099
55.600	20.199	0.099
55.700	14.215	0.099
55.800	17.493	0.099
55.900	9.423	0.099
56.000	31.983	0.099
56.100	16.738	0.099
56.200	6.189	0.099
56.300	17.710	0.099
56.400	21.122	0.099
56.500	21.170	0.100
56.600	20.787	0.100
56.700	28.521	0.099
56.800	12.860	0.099
56.900	19.460	0.099
57.000	30.594	0.099
57.100	20.341	0.099
57.200	18.343	0.099
57.300	22.176	0.099
57.400	14.538	0.099
57.500	27.365	0.099
57.600	14.707	0.099
57.700	18.790	0.099
57.800	24.538	0.100
57.900	25.224	0.099
58.000	16.065	0.099
58.100	31.365	0.099
58.200	14.067	0.099
58.300	12.708	0.099
58.400	28.469	0.099
58.500	17.459	0.099
58.600	17.777	0.099
58.700	18.628	0.099
58.800	27.172	0.100
58.900	20.824	0.099
59.000	14.664	0.099
59.100	20.588	0.099
59.200	11.537	0.099
59.300	12.521	0.099
59.400	7.215	0.099
59.500	24.164	0.099
59.600	25.825	0.100
59.700	6.354	0.099
59.800	11.071	0.099
59.900	21.022	0.099
60.000	17.176	0.099
60.100	7.886	0.099
60.200	25.839	0.099
60.300	23.562	0.099
60.400	17.704	0.099
60.500	16.196	0.099
60.600	22.796	0.099
60.700	27.240	0.099
60.800	23.460	0.099
60.900	21.366	0.099
61.000	18.068	0.099
61.100	11.163	0.099
61.200	14.628	0.099
61.300	23.868	0.099
61.400	27.348	0.099
61.500	17.207	0.099
61.600	16.371	0.099
61.700	8.398	0.099
61.800	30.464	0.099
61.900	16.454	0.099
62.000	11.517	0.099
62.100	28.027	0.099
62.200	10.431	0.099
62.300	15.114	0.099
62.400	17.936	0.099
62.500	14.417	0.099
62.600	11.872	0.099
62.700	37.818	0.099
62.800	20.813	0.099
62.900	9.470	0.099
63.000	22.087	0.099
63.100	24.710	0.099
63.200	17.591	0.099
63.300	20.148	0.099
63.400	16.060	0.099
63.500	15.501	0.099
63.600	38.623	0.099
63.700	14.679	0.099
63.800	26.649	0.099
63.900	17.978	0.099
64.000	16.443	0.099
64.100	12.809	0.099
64.200	20.795	0.099
64.300	28.947	0.099
64.400	26.960	0.099
64.500	15.031	0.099
64.600	17.001	0.099
64.700	26.536	0.099
64.800	10.718	0.099
64.900	18.595	0.099
65.000	10.380	0.099
65.100	13.507	0.099
65.200	34.635	0.099
65.300	33.446	0.099
65.400	13.648	0.099
65.500	27.165	0.099
65.600	21.722	0.099
65.700	25.972	0.099
65.800	19.123	0.100
65.900	18.857	0.099
66.000	10.670	0.099
66.100	10.516	0.099
66.200	21.176	0.099
66.300	19.857	0.099
66.400	25.961	0.099
66.500	16.174	0.099
66.600	35.921	0.099
66.700	34.065	0.100
66.800	17.918	0.099
66.900	21.780	0.099
67.000	20.635	0.099
67.100	21.972	0.099
67.200	17.462	0.099
67.300	33.324	0.099
67.400	23.436	0.099
67.500	7.784	0.099
67.600	20.599	0.099
67.700	16.964	0.099
67.800	18.667	0.099
67.900	23.214	0.099
68.000	15.241	0.099
68.100	19.447	0.099
68.200	12.531	0.099
68.300	21.439	0.100
68.400	29.241	0.099
68.500	12.924	0.099
68.600	20.642	0.099
68.700	28.086	0.099
68.800	24.899	0.099
68.900	26.201	0.099
69.000	16.011	0.099
69.100	22.876	0.099
69.200	16.095	0.099
69.300	19.979	0.099
69.400	20.477	0.099
69.500	23.568	0.099
69.600	14.804	0.099
69.700	27.903	0.099
69.800	19.869	0.099
69.900	11.373	0.099
70.000	19.772	0.099
70.100	22.699	0.099
70.200	20.540	0.099
70.300	21.133	0.099
70.400	14.700	0.099
70.500	16.391	0.099
70.600	16.140	0.099
70.700	26.846	0.099
70.800	25.215	0.099
70.900	26.710	0.099
71.000	24.527	0.099
71.100	29.745	0.099
71.200	19.831	0.099
71.300	23.938	0.099
71.400	33.482	0.099
71.500	10.438	0.099
71.600	23.020	0.099
71.700	17.229	0.099
71.800	7.045	0.099
71.900	16.139	0.099
72.000	29.340	0.099
72.100	17.181	0.099
72.200	26.637	0.099
72.300	34.036	0.099
72.400	24.342	0.100
72.500	10.945	0.099
72.600	18.308	0.099
72.700	18.897	0.099
72.800	26.980	0.099
72.900	22.122	0.099
73.000	10.377	0.099
73.100	30.124	0.099
73.200	23.079	0.099
73.300	20.774	0.099
73.400	22.626	0.099
73.500	27.642	0.099
73.600	11.578	0.099
73.700	30.236	0.099
73.800	22.663	0.099
73.900	23.513	0.099
74.000	25.083	0.099
74.100	29.320	0.099
74.200	19.492	0.099
74.300	20.265	0.100
74.400	16.827	0.099
74.500	28.274	0.099
74.600	31.967	0.099
74.700	13.192	0.100
74.800	16.663	0.099
74.900	22.029	0.100
75.000	29.147	0.099
75.100	20.199	0.099
75.200	16.072	0.099
75.300	14.410	0.099
75.400	24.974	0.099
75.500	33.811	0.099
75.600	19.780	0.099
75.700	18.354	0.099
75.800	15.996	0.099
75.900	29.933	0.099
76.000	19.524	0.099
76.100	38.790	0.099
76.200	19.728	0.099
76.300	22.997	0.099
76.400	19.080	0.099
76.500	23.028	0.099
76.600	18.584	0.100
76.700	23.177	0.099
76.800	17.851	0.099
76.900	35.316	0.099
77.000	27.445	0.099
77.100	26.060	0.099
77.200	19.470	0.099
77.300	31.714	0.099
77.400	20.532	0.099
77.500	26.319	0.099
77.600	19.941	0.099
77.700	7.310	0.099
77.800	31.510	0.099
77.900	24.902	0.099
78.000	22.530	0.099
78.100	25.466	0.099
78.200	26.225	0.099
78.300	18.146	0.099
78.400	19.256	0.099
78.500	17.265	0.099
78.600	14.198	0.099
78.700	20.720	0.099
78.800	26.265	0.099
78.900	28.183	0.099
79.000	38.321	0.099
79.100	20.520	0.099
79.200	12.274	0.099
79.300	17.950	0.099
79.400	10.895	0.099
79.500	24.878	0.099
79.600	21.815	0.099
79.700	22.411	0.099
79.800	34.467	0.100
79.900	30.378	0.099
80.000	20.154	0.099
80.100	23.593	0.099
80.200	29.642	0.099
80.300	21.879	0.099
80.400	29.024	0.099
80.500	28.399	0.099
80.600	21.414	0.099
80.700	25.027	0.099
80.800	27.264	0.099
80.900	18.269	0.099
81.000	33.579	0.099
81.100	25.950	0.099
81.200	6.839	0.099
81.300	37.441	0.099
81.400	12.451	0.099
81.500	22.275	0.099
81.600	27.033	0.099
81.700	23.620	0.099
81.800	25.519	0.099
81.900	20.894	0.099
82.000	29.935	0.099
82.100	9.129	0.099
82.200	17.509	0.099
82.300	27.515	0.099
82.400	10.382	0.099
82.500	32.145	0.099
82.600	36.707	0.099
82.700	14.513	0.099
82.800	39.627	0.099
82.900	16.126	0.099
83.000	15.514	0.099
83.100	17.794	0.099
83.200	25.892	0.099
83.300	22.913	0.099
83.400	31.099	0.099
83.500	25.542	0.099
83.600	22.800	0.099
83.700	15.707	0.099
83.800	33.441	0.099
83.900	14.413	0.099
84.000	20.747	0.099
84.100	29.154	0.099
84.200	21.266	0.099
84.300	23.561	0.099
84.400	19.668	0.099
84.500	20.234	0.099
84.600	27.491	0.099
84.700	27.993	0.099
84.800	19.522	0.099
84.900	29.272	0.099
85.000	19.874	0.099
85.100	20.608	0.099
85.200	27.697	0.099
85.300	35.299	0.099
85.400	22.885	0.099
85.500	16.112	0.099
85.600	29.431	0.099
85.700	15.032	0.099
85.800	10.790	0.100
85.900	32.753	0.099
86.000	16.779	0.099
86.100	35.529	0.099
86.200	27.323	0.099
86.300	23.601	0.099
86.400	19.936	0.099
86.500	26.054	0.099
86.600	18.506	0.099
86.700	8.990	0.099
86.800	30.149	0.099
86.900	24.460	0.099
87.000	26.318	0.099
87.100	17.447	0.099
87.200	21.498	0.099
87.300	32.000	0.099
87.400	21.025	0.099
87.500	20.505	0.099
87.600	17.761	0.099
87.700	17.627	0.099
87.800	27.268	0.099
87.900	30.257	0.099
88.000	25.878	0.099
88.100	33.139	0.099
88.200	23.816	0.099
88.300	22.335	0.099
88.400	16.128	0.099
88.500	27.794	0.099
88.600	25.174	0.099
88.700	37.731	0.099
88.800	20.664	0.099
88.900	7.982	0.099
89.000	27.026	0.099
89.100	33.711	0.099
89.200	18.826	0.099
89.300	19.614	0.099
89.400	34.452	0.099
89.500	21.286	0.099
89.600	17.372	0.099
89.700	23.053	0.099
89.800	15.523	0.099
89.900	26.268	0.099
90.000	10.237	0.099
90.100	32.380	0.099
90.200	22.577	0.099
90.300	15.474	0.100
90.400	24.679	0.099
90.500	9.136	0.099
90.600	16.920	0.099
90.700	17.237	0.099
90.800	3.089	0.099
90.900	7.023	0.099
91.000	8.333	0.099
91.100	18.358	0.100
91.200	3.986	0.099
91.300	3.338	0.099
91.400	8.028	0.099
91.500	11.408	0.099
91.600	8.415	0.099
91.700	-7.887	0.099
91.800	19.770	0.099
91.900	5.138	0.100
92.000	4.454	0.099
92.100	-13.699	0.099
92.200	-1.347	0.099
92.300	-5.313	0.099
92.400	-1.999	0.099
92.500	5.171	0.099
92.600	-9.251	0.099
92.700	-4.399	0.099
92.800	-8.240	0.099
92.900	-14.358	0.099
93.000	-8.687	0.099
93.100	4.748	0.099
93.200	-14.474	0.099
93.300	3.203	0.099
93.400	-2.024	0.099
93.500	-13.064	0.099
93.600	-6.958	0.099
93.700	-7.935	0.099
93.800	-4.058	0.099
93.900	-14.993	0.099
94.000	-2.630	0.099
94.100	-29.157	0.099
94.200	-16.505	0.099
94.300	-7.907	0.099
94.400	-11.077	0.099
94.500	0.867	0.099
94.600	-2.695	0.100
94.700	-28.894	0.099
94.800	-9.429	0.099
94.900	-19.317	0.099
95.000	-13.207	0.099
95.100	-6.822	0.099
95.200	-9.473	0.099
95.300	-4.921	0.099
95.400	-19.158	0.099
95.500	-9.078	0.099
95.600	7.911	0.099
95.700	-25.941	0.099
95.800	-8.257	0.099
