time /s	I /nA	E /V
0.100	5.871	0.099
0.200	0.365	0.099
0.300	-11.393	0.099
0.400	3.210	0.099
0.500	-3.786	0.099
0.600	18.710	0.099
0.700	1.164	0.100
0.800	-13.563	0.099
0.900	-2.056	0.099
1.000	-6.652	0.099
1.100	-14.295	0.099
1.200	12.640	0.099
1.300	-1.002	0.100
1.400	-19.737	0.099
1.500	-5.471	0.099
1.600	1.694	0.100
1.700	-1.329	0.099
1.800	1.898	0.099
1.900	-13.618	0.099
2.000	-4.748	0.099
2.100	1.716	0.099
2.200	5.118	0.099
2.300	-13.346	0.099
2.400	0.175	0.100
2.500	-12.803	0.099
2.600	5.929	0.099
2.700	4.841	0.099
2.800	-5.329	0.099
2.900	-5.450	0.099
3.000	-5.473	0.099
3.100	-3.680	0.099
3.200	11.805	0.099
3.300	1.501	0.100
3.400	-9.493	0.099
3.500	0.830	0.099
3.600	-9.162	0.099
3.700	-4.139	0.100
3.800	-13.342	0.099
3.900	-3.536	0.099
4.000	-5.980	0.099
4.100	-13.990	0.100
4.200	8.118	0.099
4.300	-1.254	0.099
4.400	-24.199	0.099
4.500	-7.511	0.099
4.600	12.821	0.099
4.700	17.644	0.099
4.800	-4.276	0.100
4.900	0.049	0.100
5.000	-19.698	0.099
5.100	-15.149	0.099
5.200	-6.175	0.100
5.300	-8.175	0.099
5.400	0.855	0.100
5.500	-11.504	0.100
5.600	-6.002	0.099
5.700	-10.057	0.100
5.800	-0.696	0.099
5.900	-6.781	0.099
6.000	-1.654	0.099
6.100	-15.041	0.099
6.200	1.829	0.100
6.300	0.870	0.100
6.400	-8.027	0.099
6.500	-23.684	0.099
6.600	-11.123	0.100
6.700	4.746	0.099
6.800	-7.841	0.099
6.900	-3.879	0.099
7.000	12.532	0.099
7.100	9.221	0.099
7.200	-13.881	0.099
7.300	-5.437	0.100
7.400	-4.237	0.100
7.500	-9.506	0.100
7.600	-5.520	0.099
7.700	-8.607	0.100
7.800	-3.172	0.100
7.900	2.038	0.099
8.000	7.994	0.099
8.100	-12.554	0.099
8.200	-5.689	0.100
8.300	7.309	0.100
8.400	0.585	0.100
8.500	-2.554	0.099
8.600	-8.195	0.100
8.700	-9.860	0.099
8.800	6.276	0.099
8.900	-10.788	0.099
9.000	-16.071	0.099
9.100	-0.455	0.100
9.200	-6.002	0.099
9.300	-11.985	0.100
9.400	-20.674	0.100
9.500	5.015	0.100
9.600	0.258	0.099
9.700	2.107	0.099
9.800	-2.299	0.100
9.900	-6.238	0.100
10.000	15.195	0.099
10.100	-2.956	0.100
10.200	-11.051	0.100
10.300	-11.600	0.100
10.400	-4.091	0.099
10.500	6.641	0.099
10.600	-3.609	0.100
10.700	-9.876	0.099
10.800	4.312	0.100
10.900	-18.625	0.099
11.000	-4.552	0.100
11.100	-5.544	0.099
11.200	-2.455	0.100
11.300	-4.212	0.099
11.400	14.000	0.099
11.500	-3.368	0.099
11.600	-3.837	0.099
11.700	-4.320	0.099
11.800	8.849	0.099
11.900	-21.516	0.100
12.000	-10.334	0.099
12.100	-10.198	0.099
12.200	-10.230	0.100
12.300	-8.824	0.100
12.400	-7.690	0.099
12.500	-3.633	0.100
12.600	-11.345	0.099
12.700	9.216	0.099
12.800	0.036	0.099
12.900	-12.865	0.100
13.000	0.858	0.099
13.100	-3.146	0.100
13.200	-18.427	0.099
13.300	0.043	0.100
13.400	-1.478	0.100
13.500	-6.303	0.100
13.600	0.079	0.100
13.700	-2.429	0.099
13.800	-7.722	0.099
13.900	-8.031	0.099
14.000	-0.433	0.100
14.100	-3.881	0.100
14.200	0.412	0.100
14.300	1.876	0.100
14.400	3.143	0.100
14.500	-6.730	0.100
14.600	-20.510	0.100
14.700	0.848	0.100
14.800	10.766	0.100
14.900	-14.778	0.099
15.000	-1.776	0.099
15.100	1.403	0.100
15.200	-16.858	0.099
15.300	10.733	0.099
15.400	3.621	0.099
15.500	-7.892	0.099
15.600	3.783	0.099
15.700	-18.870	0.099
15.800	-13.940	0.100
15.900	0.123	0.100
16.000	-4.897	0.099
16.100	8.757	0.099
16.200	10.091	0.099
16.300	-7.736	0.100
16.400	-0.974	0.100
16.500	6.742	0.100
16.600	-25.113	0.099
16.700	3.262	0.100
16.800	-12.122	0.099
16.900	-14.255	0.099
17.000	3.063	0.099
17.100	0.626	0.099
17.200	8.564	0.099
17.300	-17.128	0.100
17.400	-14.229	0.099
17.500	3.692	0.099
17.600	-0.275	0.100
17.700	0.002	0.099
17.800	-0.705	0.100
17.900	-24.748	0.099
18.000	8.957	0.099
18.100	3.082	0.099
18.200	0.119	0.099
18.300	-13.246	0.099
18.400	-6.287	0.099
18.500	-4.268	0.099
18.600	10.714	0.100
18.700	-20.410	0.099
18.800	6.736	0.100
18.900	1.835	0.099
19.000	-0.314	0.099
19.100	-24.421	0.099
19.200	4.136	0.099
19.300	-11.126	0.099
19.400	-3.224	0.100
19.500	8.772	0.100
19.600	0.979	0.099
19.700	-20.858	0.100
19.800	10.175	0.099
19.900	-1.653	0.099
20.000	-12.643	0.099
20.100	-9.758	0.100
20.200	10.128	0.100
20.300	5.951	0.099
20.400	-11.908	0.099
20.500	-3.307	0.099
20.600	-4.526	0.099
20.700	-7.001	0.099
20.800	-5.616	0.100
20.900	-14.868	0.099
21.000	3.773	0.099
21.100	-3.795	0.099
21.200	-1.518	0.100
21.300	-8.134	0.099
21.400	-3.754	0.099
21.500	2.571	0.100
21.600	0.992	0.099
21.700	-7.266	0.099
21.800	0.945	0.100
21.900	-6.413	0.099
22.000	-3.070	0.099
22.100	-9.698	0.100
22.200	-7.020	0.099
22.300	12.530	0.099
22.400	-9.113	0.099
22.500	4.194	0.099
22.600	-0.154	0.099
22.700	6.146	0.100
22.800	8.668	0.099
22.900	-11.937	0.100
23.000	-8.950	0.099
23.100	-1.595	0.099
23.200	2.327	0.099
23.300	-7.097	0.100
23.400	-0.548	0.099
23.500	-5.673	0.100
23.600	-4.153	0.099
23.700	-1.196	0.100
23.800	-6.581	0.100
23.900	-0.657	0.099
24.000	-3.983	0.099
24.100	-9.541	0.099
24.200	-11.176	0.099
24.300	-0.908	0.099
24.400	-7.908	0.100
24.500	-3.113	0.100
24.600	-3.488	0.099
24.700	-14.902	0.099
24.800	10.567	0.099
24.900	6.591	0.100
25.000	3.367	0.100
25.100	-11.393	0.100
25.200	-9.094	0.099
25.300	-9.226	0.099
25.400	5.972	0.099
25.500	-4.471	0.099
25.600	-3.283	0.099
25.700	2.202	0.100
25.800	-14.761	0.099
25.900	-11.868	0.099
26.000	-4.418	0.099
26.100	4.641	0.099
26.200	-18.539	0.099
26.300	0.900	0.099
26.400	-5.403	0.099
26.500	6.735	0.100
26.600	-10.907	0.099
26.700	1.181	0.099
26.800	-8.570	0.100
26.900	-18.205	0.100
27.000	-3.203	0.099
27.100	3.432	0.099
27.200	0.035	0.099
27.300	19.615	0.099
27.400	-15.752	0.099
27.500	0.555	0.100
27.600	-22.240	0.099
27.700	14.399	0.099
27.800	-3.262	0.099
27.900	-1.884	0.099
28.000	-10.552	0.100
28.100	-6.545	0.099
28.200	-16.271	0.100
28.300	7.646	0.099
28.400	-1.531	0.100
28.500	-3.510	0.100
28.600	-0.409	0.099
28.700	2.449	0.099
28.800	-19.555	0.099
28.900	-7.049	0.099
29.000	5.666	0.099
29.100	7.143	0.100
29.200	0.040	0.100
29.300	-14.370	0.099
29.400	-2.943	0.100
29.500	10.382	0.100
29.600	-13.885	0.100
29.700	3.593	0.100
29.800	-6.645	0.099
29.900	-13.285	0.100
30.000	9.449	0.099
30.100	-8.159	0.099
30.200	-3.464	0.100
30.300	-4.831	0.099
30.400	-9.972	0.100
30.500	0.415	0.100
30.600	2.107	0.100
30.700	-16.017	0.099
30.800	22.098	0.099
30.900	10.010	0.100
31.000	-0.942	0.099
31.100	1.205	0.100
31.200	-2.425	0.099
31.300	2.254	0.099
31.400	10.291	0.099
31.500	-17.571	0.099
31.600	17.049	0.100
31.700	2.458	0.099
31.800	14.923	0.099
31.900	19.023	0.099
32.000	19.668	0.099
32.100	11.128	0.099
32.200	16.280	0.100
32.300	18.490	0.099
32.400	7.384	0.099
32.500	28.084	0.099
32.600	18.203	0.099
32.700	5.685	0.099
32.800	23.816	0.100
32.900	15.489	0.100
33.000	20.873	0.099
33.100	20.763	0.100
33.200	26.639	0.099
33.300	24.774	0.099
33.400	24.756	0.099
33.500	1.557	0.099
33.600	13.305	0.100
33.700	23.464	0.099
33.800	18.513	0.099
33.900	14.222	0.100
34.000	32.516	0.099
34.100	15.441	0.099
34.200	18.374	0.099
34.300	23.563	0.100
34.400	27.050	0.099
34.500	14.518	0.099
34.600	14.791	0.099
34.700	17.341	0.100
34.800	37.514	0.100
34.900	29.296	0.099
35.000	29.683	0.100
35.100	21.251	0.100
35.200	16.979	0.099
35.300	15.439	0.100
35.400	24.640	0.100
35.500	25.990	0.100
35.600	23.539	0.100
35.700	18.798	0.099
35.800	24.652	0.100
35.900	24.885	0.099
36.000	24.786	0.100
36.100	28.973	0.100
36.200	34.655	0.099
36.300	26.740	0.099
36.400	19.413	0.099
36.500	31.736	0.100
36.600	32.580	0.099
36.700	19.376	0.099
36.800	23.011	0.100
36.900	43.597	0.099
37.000	27.059	0.100
37.100	24.471	0.100
37.200	30.103	0.100
37.300	13.947	0.100
37.400	37.617	0.100
37.500	17.431	0.099
37.600	23.992	0.100
37.700	23.259	0.099
37.800	28.550	0.100
37.900	23.945	0.100
38.000	26.326	0.099
38.100	34.939	0.100
38.200	25.804	0.100
38.300	25.560	0.100
38.400	21.959	0.100
38.500	36.410	0.100
38.600	14.533	0.099
38.700	37.889	0.100
38.800	33.137	0.100
38.900	29.553	0.099
39.000	31.193	0.099
39.100	31.461	0.099
39.200	28.914	0.099
39.300	22.903	0.100
39.400	22.277	0.100
39.500	37.446	0.099
39.600	28.598	0.100
39.700	29.971	0.099
39.800	22.202	0.099
39.900	24.522	0.100
40.000	15.005	0.100
40.100	28.593	0.100
40.200	26.615	0.100
40.300	20.399	0.100
40.400	49.876	0.099
40.500	29.999	0.100
40.600	24.395	0.100
40.700	34.477	0.099
40.800	29.026	0.100
40.900	30.979	0.100
41.000	22.805	0.099
41.100	18.879	0.100
41.200	28.176	0.100
41.300	24.371	0.100
41.400	34.164	0.100
41.500	22.583	0.099
41.600	20.054	0.100
41.700	32.746	0.100
41.800	28.556	0.099
41.900	35.102	0.100
42.000	26.320	0.099
42.100	23.643	0.100
42.200	45.878	0.100
42.300	27.372	0.100
42.400	28.194	0.099
42.500	25.457	0.099
42.600	22.343	0.099
42.700	34.199	0.099
42.800	33.267	0.099
42.900	26.315	0.100
43.000	25.248	0.099
43.100	31.805	0.100
43.200	21.981	0.100
43.300	24.205	0.099
43.400	32.128	0.100
43.500	43.952	0.100
43.600	19.667	0.099
43.700	33.929	0.099
43.800	23.984	0.099
43.900	43.399	0.099
44.000	27.016	0.100
44.100	38.469	0.100
44.200	44.483	0.100
44.300	25.644	0.100
44.400	20.956	0.099
44.500	34.943	0.099
44.600	23.750	0.100
44.700	19.457	0.100
44.800	37.001	0.099
44.900	34.219	0.100
45.000	35.054	0.100
45.100	44.493	0.099
45.200	29.074	0.099
45.300	29.459	0.100
45.400	21.103	0.100
45.500	29.440	0.100
45.600	25.716	0.100
45.700	27.763	0.100
45.800	47.601	0.099
45.900	21.221	0.100
46.000	31.616	0.100
46.100	35.151	0.099
46.200	17.138	0.099
46.300	36.314	0.099
46.400	31.582	0.100
46.500	33.548	0.099
46.600	35.096	0.099
46.700	34.659	0.100
46.800	30.231	0.100
46.900	36.960	0.100
47.000	32.929	0.100
47.100	33.862	0.100
47.200	23.869	0.100
47.300	29.910	0.100
47.400	45.140	0.100
47.500	27.098	0.100
47.600	29.981	0.100
47.700	29.764	0.099
47.800	24.531	0.099
47.900	32.515	0.100
48.000	24.003	0.100
48.100	31.033	0.100
48.200	36.883	0.100
48.300	35.695	0.100
48.400	18.867	0.099
48.500	39.304	0.099
48.600	37.871	0.100
48.700	26.733	0.100
48.800	47.473	0.100
48.900	16.895	0.100
49.000	15.293	0.099
49.100	23.916	0.100
49.200	42.908	0.100
49.300	23.269	0.099
49.400	18.725	0.100
49.500	47.729	0.100
49.600	22.501	0.100
49.700	35.039	0.100
49.800	43.031	0.099
49.900	26.621	0.099
50.000	27.437	0.099
50.100	36.135	0.100
50.200	27.630	0.100
50.300	33.927	0.100
50.400	36.931	0.100
50.500	14.698	0.100
50.600	44.725	0.100
50.700	45.780	0.099
50.800	35.778	0.100
50.900	25.436	0.100
51.000	23.335	0.100
51.100	30.160	0.099
51.200	26.216	0.100
51.300	24.566	0.100
51.400	37.800	0.100
51.500	30.808	0.100
51.600	32.039	0.099
51.700	19.154	0.100
51.800	32.796	0.100
51.900	47.083	0.099
52.000	46.640	0.100
52.100	41.808	0.099
52.200	29.641	0.100
52.300	25.095	0.100
52.400	22.665	0.099
52.500	28.190	0.099
52.600	47.442	0.099
52.700	34.819	0.100
52.800	50.249	0.100
52.900	33.932	0.100
53.000	29.842	0.100
53.100	27.334	0.099
53.200	31.469	0.100
53.300	32.378	0.100
53.400	37.540	0.100
53.500	19.718	0.100
53.600	32.251	0.100
53.700	46.638	0.100
53.800	14.010	0.100
53.900	29.558	0.100
54.000	32.361	0.100
54.100	26.350	0.100
54.200	26.070	0.100
54.300	34.811	0.100
54.400	35.699	0.100
54.500	27.172	0.100
54.600	39.445	0.100
54.700	38.396	0.100
54.800	41.552	0.100
54.900	31.535	0.100
55.000	10.550	0.100
55.100	40.450	0.099
55.200	32.188	0.100
55.300	21.527	0.100
55.400	34.350	0.100
55.500	27.334	0.100
55.600	21.791	0.100
55.700	46.491	0.100
55.800	30.126	0.100
55.900	31.853	0.100
56.000	24.181	0.100
56.100	33.254	0.100
56.200	31.765	0.100
56.300	34.439	0.100
56.400	35.514	0.100
56.500	35.685	0.100
56.600	26.011	0.100
56.700	19.716	0.100
56.800	26.758	0.100
56.900	38.178	0.100
57.000	47.091	0.100
57.100	37.709	0.100
57.200	31.672	0.100
57.300	37.315	0.100
57.400	27.134	0.100
57.500	30.382	0.100
57.600	31.004	0.099
57.700	27.989	0.100
57.800	51.218	0.100
57.900	23.831	0.100
58.000	44.323	0.100
58.100	36.102	0.100
58.200	25.017	0.100
58.300	16.463	0.100
58.400	46.730	0.100
58.500	37.084	0.100
58.600	41.248	0.100
58.700	29.308	0.100
58.800	19.744	0.100
58.900	39.030	0.100
59.000	32.459	0.100
59.100	39.858	0.100
59.200	13.663	0.100
59.300	26.903	0.100
59.400	40.684	0.100
59.500	29.589	0.100
59.600	34.686	0.100
59.700	22.336	0.099
59.800	38.018	0.099
59.900	29.511	0.100
60.000	24.031	0.100
60.100	27.012	0.099
60.200	43.197	0.099
60.300	28.230	0.100
60.400	31.262	0.100
60.500	35.268	0.100
60.600	18.806	0.099
60.700	30.407	0.100
60.800	35.141	0.100
60.900	42.301	0.100
61.000	24.948	0.099
61.100	35.328	0.099
61.200	34.861	0.099
61.300	34.939	0.100
61.400	30.544	0.099
61.500	31.265	0.099
61.600	28.317	0.100
61.700	42.731	0.100
61.800	36.182	0.100
61.900	35.809	0.099
62.000	34.140	0.100
62.100	37.947	0.099
62.200	32.732	0.100
62.300	36.858	0.100
62.400	33.736	0.100
62.500	23.066	0.100
62.600	34.126	0.099
62.700	28.053	0.100
62.800	41.483	0.099
62.900	26.091	0.100
63.000	43.187	0.100
63.100	28.397	0.100
63.200	33.644	0.099
63.300	24.045	0.100
63.400	26.685	0.100
63.500	29.534	0.099
63.600	30.306	0.100
63.700	43.413	0.099
63.800	25.349	0.099
63.900	22.573	0.099
64.000	38.281	0.100
64.100	43.009	0.100
64.200	43.398	0.099
64.300	30.564	0.100
64.400	42.632	0.099
64.500	33.586	0.100
64.600	48.581	0.100
64.700	19.918	0.100
64.800	28.523	0.100
64.900	28.064	0.100
65.000	38.176	0.100
65.100	32.224	0.099
65.200	38.016	0.100
65.300	36.377	0.100
65.400	28.452	0.099
65.500	13.364	0.100
65.600	31.431	0.100
65.700	49.049	0.099
65.800	21.027	0.099
65.900	32.757	0.100
66.000	26.080	0.100
66.100	33.823	0.100
66.200	29.691	0.100
66.300	38.725	0.099
66.400	33.730	0.100
66.500	29.966	0.100
66.600	37.753	0.100
66.700	46.039	0.099
66.800	37.068	0.100
66.900	41.948	0.100
67.000	20.554	0.099
67.100	31.291	0.099
67.200	25.715	0.099
67.300	26.672	0.099
67.400	29.373	0.100
67.500	28.022	0.099
67.600	36.443	0.099
67.700	42.093	0.099
67.800	20.768	0.100
67.900	33.871	0.100
68.000	30.101	0.099
68.100	27.867	0.099
68.200	29.023	0.099
68.300	32.392	0.100
68.400	47.932	0.100
68.500	39.546	0.100
68.600	33.404	0.100
68.700	21.628	0.100
68.800	38.381	0.100
68.900	43.709	0.099
69.000	31.557	0.099
69.100	30.751	0.100
69.200	32.061	0.100
69.300	38.065	0.100
69.400	32.633	0.100
69.500	28.127	0.099
69.600	34.542	0.100
69.700	35.891	0.099
69.800	6.817	0.100
69.900	36.482	0.099
70.000	36.362	0.099
70.100	33.002	0.100
70.200	33.275	0.100
70.300	32.243	0.100
70.400	27.273	0.099
70.500	36.908	0.100
70.600	42.564	0.100
70.700	23.548	0.100
70.800	19.033	0.100
70.900	32.407	0.099
71.000	36.762	0.100
71.100	24.522	0.100
71.200	14.409	0.100
71.300	36.841	0.100
71.400	38.129	0.100
71.500	28.893	0.100
71.600	24.799	0.100
71.700	31.706	0.100
71.800	43.525	0.100
71.900	34.327	0.099
72.000	37.149	0.100
72.100	35.886	0.100
72.200	33.364	0.099
72.300	23.212	0.100
72.400	40.974	0.100
72.500	25.697	0.099
72.600	36.708	0.100
72.700	23.367	0.099
72.800	29.951	0.099
72.900	40.828	0.099
73.000	26.449	0.100
73.100	38.910	0.100
73.200	29.796	0.100
73.300	26.832	0.099
73.400	33.173	0.100
73.500	30.473	0.100
73.600	36.534	0.100
73.700	29.347	0.100
73.800	27.871	0.100
73.900	34.921	0.100
74.000	24.588	0.100
74.100	33.382	0.099
74.200	25.707	0.099
74.300	40.675	0.100
74.400	34.842	0.100
74.500	29.373	0.100
74.600	27.754	0.100
74.700	27.133	0.100
74.800	43.143	0.099
74.900	10.998	0.099
75.000	36.288	0.100
75.100	22.000	0.099
75.200	47.439	0.100
75.300	30.799	0.100
75.400	22.943	0.099
75.500	46.371	0.100
75.600	43.153	0.100
75.700	37.956	0.099
75.800	36.271	0.100
75.900	28.398	0.100
76.000	25.871	0.100
76.100	38.271	0.099
76.200	30.638	0.100
76.300	29.032	0.100
76.400	35.577	0.099
76.500	11.697	0.099
76.600	30.870	0.099
76.700	47.094	0.099
76.800	26.800	0.099
76.900	35.815	0.099
77.000	24.407	0.099
77.100	39.017	0.099
77.200	30.517	0.099
77.300	18.971	0.099
77.400	56.078	0.099
77.500	37.485	0.100
77.600	28.198	0.100
77.700	28.854	0.100
77.800	16.469	0.100
77.900	47.838	0.100
78.000	33.272	0.100
78.100	21.272	0.100
78.200	40.913	0.099
78.300	31.404	0.099
78.400	44.173	0.100
78.500	17.756	0.100
78.600	18.338	0.100
78.700	29.146	0.099
78.800	37.267	0.100
78.900	25.009	0.099
79.000	37.920	0.100
79.100	34.795	0.100
79.200	33.188	0.099
79.300	29.859	0.099
79.400	31.075	0.100
79.500	26.493	0.100
79.600	29.948	0.100
79.700	36.655	0.100
79.800	32.160	0.100
79.900	53.345	0.100
80.000	31.306	0.100
80.100	24.916	0.099
80.200	35.839	0.100
80.300	29.248	0.100
80.400	36.682	0.100
80.500	37.628	0.100
80.600	33.721	0.100
80.700	38.327	0.100
80.800	29.857	0.100
80.900	41.947	0.100
81.000	44.404	0.100
81.100	25.657	0.100
81.200	27.934	0.100
81.300	28.804	0.099
81.400	21.273	0.100
81.500	28.918	0.099
81.600	40.716	0.100
81.700	36.734	0.100
81.800	27.518	0.100
81.900	32.894	0.100
82.000	41.679	0.099
82.100	35.885	0.100
82.200	22.955	0.100
82.300	31.058	0.099
82.400	24.298	0.100
82.500	33.425	0.100
82.600	36.204	0.099
82.700	37.487	0.100
82.800	29.093	0.099
82.900	40.663	0.099
83.000	31.869	0.100
83.100	40.255	0.100
83.200	36.037	0.100
83.300	44.253	0.100
83.400	37.981	0.099
83.500	23.176	0.100
83.600	36.354	0.099
83.700	18.075	0.100
83.800	42.252	0.100
83.900	38.303	0.100
84.000	36.896	0.100
84.100	32.844	0.099
84.200	44.113	0.100
84.300	26.585	0.100
84.400	22.411	0.100
84.500	37.227	0.100
84.600	40.225	0.100
84.700	31.474	0.100
84.800	29.912	0.100
84.900	39.077	0.100
85.000	29.376	0.100
85.100	24.690	0.100
85.200	14.420	0.100
85.300	20.756	0.100
85.400	43.145	0.100
85.500	21.262	0.100
85.600	32.080	0.100
85.700	43.962	0.100
85.800	34.335	0.100
85.900	34.935	0.099
86.000	33.858	0.100
86.100	32.328	0.100
86.200	29.884	0.100
86.300	29.941	0.099
86.400	25.751	0.099
86.500	51.640	0.100
86.600	30.705	0.099
86.700	31.456	0.100
86.800	45.000	0.100
86.900	28.717	0.100
87.000	32.904	0.100
87.100	47.528	0.100
87.200	35.280	0.100
87.300	29.813	0.100
87.400	30.103	0.100
87.500	23.787	0.100
87.600	23.569	0.100
87.700	43.675	0.099
87.800	35.588	0.100
87.900	21.402	0.100
88.000	33.046	0.100
88.100	35.330	0.099
88.200	27.767	0.100
88.300	31.274	0.100
88.400	50.259	0.100
88.500	41.468	0.100
88.600	39.832	0.100
88.700	27.921	0.100
88.800	31.121	0.100
88.900	36.049	0.100
89.000	40.934	0.100
89.100	13.771	0.099
89.200	40.919	0.100
89.300	44.995	0.100
89.400	28.624	0.100
89.500	32.685	0.099
89.600	28.639	0.100
89.700	37.758	0.100
89.800	42.654	0.100
89.900	31.411	0.100
90.000	20.990	0.100
90.100	43.916	0.100
90.200	30.048	0.100
90.300	36.396	0.100
90.400	41.674	0.100
90.500	20.335	0.100
90.600	35.542	0.100
90.700	35.861	0.100
90.800	38.244	0.100
90.900	35.270	0.100
91.000	4.734	0.100
91.100	18.321	0.100
91.200	23.832	0.100
91.300	25.128	0.099
91.400	17.354	0.100
91.500	19.483	0.100
91.600	22.683	0.099
91.700	19.108	0.100
91.800	9.682	0.100
91.900	22.394	0.100
92.000	18.410	0.099
92.100	23.541	0.100
92.200	10.957	0.099
92.300	19.693	0.100
92.400	-1.781	0.100
92.500	4.869	0.099
92.600	39.104	0.100
92.700	16.089	0.100
92.800	-2.505	0.100
92.900	1.988	0.099
93.000	-4.158	0.099
93.100	29.801	0.099
93.200	2.831	0.100
93.300	2.056	0.099
93.400	16.104	0.100
93.500	9.145	0.099
93.600	2.066	0.100
93.700	-6.721	0.099
93.800	3.755	0.099
93.900	-0.638	0.099
94.000	5.667	0.099
94.100	1.769	0.099
94.200	13.424	0.100
94.300	8.039	0.099
94.400	4.441	0.099
94.500	0.028	0.099
94.600	-3.388	0.099
94.700	13.342	0.099
94.800	-1.179	0.099
94.900	2.582	0.099
95.000	5.588	0.099
95.100	2.954	0.099
95.200	7.046	0.099
95.300	-10.805	0.099
95.400	22.067	0.099
95.500	-6.927	0.099
95.600	-9.285	0.099
95.700	-3.210	0.099
95.800	4.481	0.099
