time /s	I /nA	E /V
0.100	-59.720	0.100
0.200	-60.521	0.100
0.300	-66.287	0.100
0.400	-68.613	0.100
0.500	-70.873	0.100
0.600	-58.407	0.100
0.700	-80.289	0.100
0.800	-61.191	0.100
0.900	-60.300	0.100
1.000	-59.599	0.100
1.100	-52.759	0.100
1.200	-64.058	0.100
1.300	-65.341	0.100
1.400	-57.246	0.100
1.500	-49.481	0.100
1.600	-75.468	0.100
1.700	-67.196	0.100
1.800	-47.619	0.100
1.900	-60.431	0.100
2.000	-57.669	0.100
2.100	-53.700	0.100
2.200	-60.243	0.100
2.300	-64.032	0.100
2.400	-61.464	0.100
2.500	-57.614	0.100
2.600	-64.384	0.100
2.700	-55.926	0.100
2.800	-50.994	0.100
2.900	-64.932	0.100
3.000	-66.418	0.100
3.100	-59.681	0.100
3.200	-61.661	0.100
3.300	-55.833	0.100
3.400	-59.782	0.100
3.500	-57.572	0.100
3.600	-63.954	0.100
3.700	-54.521	0.100
3.800	-64.609	0.100
3.900	-55.397	0.100
4.000	-61.395	0.100
4.100	-54.293	0.100
4.200	-57.574	0.100
4.300	-50.857	0.100
4.400	-45.768	0.100
4.500	-54.495	0.100
4.600	-60.923	0.100
4.700	-56.931	0.100
4.800	-53.826	0.100
4.900	-52.753	0.100
5.000	-49.881	0.100
5.100	-58.581	0.100
5.200	-57.607	0.100
5.300	-48.636	0.100
5.400	-59.632	0.100
5.500	-48.306	0.100
5.600	-58.327	0.100
5.700	-51.888	0.100
5.800	-56.914	0.100
5.900	-52.873	0.100
6.000	-40.477	0.100
6.100	-57.321	0.100
6.200	-47.031	0.100
6.300	-56.791	0.100
6.400	-48.394	0.100
6.500	-41.800	0.100
6.600	-55.901	0.100
6.700	-42.861	0.100
6.800	-57.933	0.100
6.900	-48.815	0.100
7.000	-61.536	0.100
7.100	-51.069	0.100
7.200	-63.261	0.100
7.300	-50.048	0.100
7.400	-63.624	0.100
7.500	-51.309	0.100
7.600	-48.813	0.100
7.700	-47.504	0.100
7.800	-38.643	0.100
7.900	-52.208	0.100
8.000	-49.099	0.100
8.100	-54.840	0.100
8.200	-51.376	0.100
8.300	-49.290	0.100
8.400	-41.773	0.100
8.500	-48.995	0.100
8.600	-53.542	0.100
8.700	-47.540	0.100
8.800	-49.964	0.100
8.900	-61.247	0.100
9.000	-47.779	0.100
9.100	-59.808	0.100
9.200	-65.401	0.100
9.300	-54.157	0.100
9.400	-45.122	0.100
9.500	-49.696	0.100
9.600	-52.857	0.100
9.700	-51.678	0.100
9.800	-48.204	0.100
9.900	-61.354	0.100
10.000	-44.306	0.100
10.100	-43.868	0.100
10.200	-45.886	0.100
10.300	-40.387	0.100
10.400	-44.716	0.100
10.500	-37.848	0.100
10.600	-64.215	0.100
10.700	-42.173	0.100
10.800	-49.876	0.100
10.900	-45.896	0.100
11.000	-53.127	0.100
11.100	-44.076	0.100
11.200	-41.369	0.100
11.300	-47.605	0.100
11.400	-54.056	0.100
11.500	-56.767	0.100
11.600	-57.398	0.100
11.700	-46.237	0.100
11.800	-55.074	0.100
11.900	-46.283	0.100
12.000	-41.072	0.100
12.100	-52.082	0.100
12.200	-64.309	0.100
12.300	-51.337	0.100
12.400	-41.205	0.100
12.500	-49.880	0.100
12.600	-54.283	0.100
12.700	-53.162	0.100
12.800	-41.773	0.100
12.900	-50.865	0.100
13.000	-39.588	0.100
13.100	-56.751	0.100
13.200	-53.373	0.100
13.300	-52.153	0.100
13.400	-48.946	0.100
13.500	-43.437	0.100
13.600	-55.038	0.100
13.700	-58.359	0.100
13.800	-51.460	0.100
13.900	-67.718	0.100
14.000	-52.363	0.100
14.100	-47.787	0.100
14.200	-39.423	0.100
14.300	-51.715	0.100
14.400	-49.306	0.100
14.500	-57.224	0.100
14.600	-46.980	0.100
14.700	-40.455	0.100
14.800	-41.514	0.100
14.900	-49.704	0.100
15.000	-44.491	0.100
15.100	-50.734	0.100
15.200	-42.979	0.100
15.300	-41.021	0.100
15.400	-42.800	0.100
15.500	-39.326	0.100
15.600	-56.134	0.100
15.700	-57.781	0.100
15.800	-63.810	0.100
15.900	-45.685	0.100
16.000	-55.781	0.100
16.100	-62.210	0.100
16.200	-63.077	0.100
16.300	-55.958	0.100
16.400	-54.056	0.100
16.500	-36.671	0.100
16.600	-44.071	0.100
16.700	-57.149	0.100
16.800	-39.841	0.100
16.900	-36.540	0.100
17.000	-48.870	0.100
17.100	-49.338	0.100
17.200	-53.970	0.100
17.300	-56.168	0.100
17.400	-53.470	0.100
17.500	-44.307	0.100
17.600	-47.970	0.100
17.700	-44.787	0.100
17.800	-50.073	0.100
17.900	-35.393	0.100
18.000	-47.651	0.100
18.100	-55.915	0.100
18.200	-43.275	0.100
18.300	-34.398	0.100
18.400	-60.630	0.100
18.500	-46.889	0.100
18.600	-56.148	0.100
18.700	-39.981	0.100
18.800	-47.042	0.100
18.900	-34.668	0.100
19.000	-49.091	0.100
19.100	-38.145	0.100
19.200	-52.517	0.100
19.300	-45.838	0.100
19.400	-54.721	0.100
19.500	-45.124	0.100
19.600	-53.258	0.100
19.700	-48.963	0.100
19.800	-53.718	0.100
19.900	-37.921	0.100
20.000	-43.982	0.100
20.100	-42.365	0.100
20.200	-33.212	0.100
20.300	-46.902	0.100
20.400	-47.142	0.100
20.500	-50.034	0.100
20.600	-39.533	0.100
20.700	-46.520	0.100
20.800	-38.651	0.100
20.900	-53.462	0.100
21.000	-32.566	0.100
21.100	-69.530	0.100
21.200	-58.075	0.100
21.300	-40.119	0.100
21.400	-61.772	0.100
21.500	-46.066	0.100
21.600	-47.849	0.100
21.700	-40.039	0.100
21.800	-58.988	0.100
21.900	-42.039	0.100
22.000	-48.360	0.100
22.100	-44.704	0.100
22.200	-55.545	0.100
22.300	-39.620	0.100
22.400	-40.672	0.100
22.500	-40.247	0.100
22.600	-42.170	0.100
22.700	-42.431	0.100
22.800	-47.986	0.100
22.900	-62.435	0.100
23.000	-39.935	0.100
23.100	-40.022	0.100
23.200	-44.761	0.100
23.300	-45.875	0.100
23.400	-44.926	0.100
23.500	-46.436	0.100
23.600	-36.151	0.100
23.700	-48.997	0.100
23.800	-44.532	0.100
23.900	-42.850	0.100
24.000	-43.175	0.100
24.100	-52.250	0.100
24.200	-40.088	0.100
24.300	-33.589	0.100
24.400	-47.921	0.100
24.500	-40.824	0.100
24.600	-42.476	0.100
24.700	-40.454	0.100
24.800	-40.290	0.100
24.900	-41.910	0.100
25.000	-54.829	0.100
25.100	-38.527	0.100
25.200	-38.654	0.100
25.300	-46.986	0.100
25.400	-42.786	0.100
25.500	-54.372	0.100
25.600	-41.872	0.100
25.700	-35.913	0.100
25.800	-39.276	0.100
25.900	-48.248	0.100
26.000	-31.467	0.100
26.100	-26.754	0.100
26.200	-43.744	0.100
26.300	-42.839	0.100
26.400	-42.512	0.100
26.500	-42.723	0.100
26.600	-29.723	0.100
26.700	-57.589	0.100
26.800	-57.151	0.100
26.900	-33.166	0.100
27.000	-48.946	0.100
27.100	-51.303	0.100
27.200	-38.617	0.100
27.300	-36.912	0.100
27.400	-38.294	0.100
27.500	-50.524	0.100
27.600	-46.990	0.100
27.700	-43.715	0.100
27.800	-44.069	0.100
27.900	-47.050	0.100
28.000	-33.734	0.100
28.100	-50.630	0.100
28.200	-30.639	0.100
28.300	-49.137	0.100
28.400	-39.218	0.100
28.500	-46.817	0.100
28.600	-38.571	0.100
28.700	-37.835	0.100
28.800	-38.048	0.100
28.900	-37.890	0.100
29.000	-40.121	0.100
29.100	-28.775	0.100
29.200	-44.426	0.100
29.300	-37.977	0.100
29.400	-40.816	0.100
29.500	-42.365	0.100
29.600	-46.308	0.100
29.700	-55.469	0.100
29.800	-52.416	0.100
29.900	-36.139	0.100
30.000	-30.023	0.100
30.100	-38.057	0.100
30.200	-39.205	0.100
30.300	-37.655	0.100
30.400	-40.915	0.100
30.500	-33.510	0.100
30.600	-31.463	0.100
30.700	-19.293	0.100
30.800	-31.307	0.100
30.900	-16.973	0.100
31.000	-24.386	0.100
31.100	-27.859	0.100
31.200	-25.884	0.100
31.300	-15.635	0.100
31.400	-16.931	0.100
31.500	-20.092	0.100
31.600	-22.275	0.100
31.700	-17.752	0.100
31.800	-17.383	0.100
31.900	-24.175	0.100
32.000	-18.620	0.100
32.100	-9.213	0.100
32.200	-28.948	0.100
32.300	-22.664	0.100
32.400	-5.882	0.100
32.500	-11.063	0.100
32.600	-5.247	0.100
32.700	-10.926	0.100
32.800	-3.017	0.100
32.900	-6.067	0.100
33.000	-3.525	0.100
33.100	-14.433	0.100
33.200	-15.240	0.100
33.300	-12.138	0.100
33.400	-3.635	0.100
33.500	-12.736	0.100
33.600	-15.830	0.100
33.700	-1.249	0.100
33.800	-23.136	0.100
33.900	-4.999	0.100
34.000	-8.261	0.100
34.100	2.756	0.100
34.200	3.709	0.100
34.300	2.407	0.100
34.400	-14.447	0.100
34.500	-5.916	0.100
34.600	-8.370	0.100
34.700	-5.836	0.100
34.800	0.808	0.100
34.900	0.560	0.100
35.000	5.798	0.100
35.100	0.298	0.100
35.200	0.460	0.100
35.300	-6.772	0.100
35.400	10.605	0.100
35.500	2.469	0.100
35.600	20.654	0.100
35.700	-0.245	0.100
35.800	11.861	0.100
35.900	8.306	0.100
36.000	16.136	0.100
36.100	18.424	0.100
36.200	24.659	0.100
36.300	24.175	0.100
36.400	17.986	0.100
36.500	17.668	0.100
36.600	18.005	0.100
36.700	23.128	0.100
36.800	36.478	0.100
36.900	36.244	0.100
37.000	24.960	0.100
37.100	23.506	0.100
37.200	24.913	0.100
37.300	35.548	0.100
37.400	29.003	0.100
37.500	39.808	0.100
37.600	24.506	0.100
37.700	41.206	0.100
37.800	26.642	0.100
37.900	42.187	0.100
38.000	51.966	0.100
38.100	43.385	0.100
38.200	29.749	0.100
38.300	41.302	0.100
38.400	54.414	0.100
38.500	40.529	0.100
38.600	44.588	0.100
38.700	53.562	0.100
38.800	40.034	0.100
38.900	32.110	0.100
39.000	42.241	0.100
39.100	51.977	0.100
39.200	43.651	0.100
39.300	51.901	0.100
39.400	50.755	0.100
39.500	42.020	0.100
39.600	44.281	0.100
39.700	63.048	0.100
39.800	55.053	0.100
39.900	57.848	0.100
40.000	47.892	0.100
40.100	44.968	0.100
40.200	43.213	0.100
40.300	40.398	0.100
40.400	53.720	0.100
40.500	41.602	0.100
40.600	43.256	0.100
40.700	45.141	0.100
40.800	46.454	0.100
40.900	45.248	0.100
41.000	53.827	0.100
41.100	30.366	0.100
41.200	47.668	0.100
41.300	46.548	0.100
41.400	57.338	0.100
41.500	44.235	0.100
41.600	47.771	0.100
41.700	35.548	0.100
41.800	49.906	0.100
41.900	37.337	0.100
42.000	34.386	0.100
42.100	49.533	0.100
42.200	40.695	0.100
42.300	36.867	0.100
42.400	49.069	0.100
42.500	35.879	0.100
42.600	36.285	0.100
42.700	43.978	0.100
42.800	47.219	0.100
42.900	38.849	0.100
43.000	47.280	0.100
43.100	45.293	0.100
43.200	34.554	0.100
43.300	39.937	0.100
43.400	33.824	0.100
43.500	36.255	0.100
43.600	34.272	0.100
43.700	33.398	0.100
43.800	33.351	0.100
43.900	31.336	0.100
44.000	41.429	0.100
44.100	38.429	0.100
44.200	40.271	0.100
44.300	24.657	0.100
44.400	41.691	0.100
44.500	20.891	0.100
44.600	23.035	0.100
44.700	35.869	0.100
44.800	23.394	0.100
44.900	31.093	0.100
45.000	28.979	0.100
45.100	37.770	0.100
45.200	25.493	0.100
45.300	33.863	0.100
45.400	40.382	0.100
45.500	27.362	0.100
45.600	40.082	0.100
45.700	26.973	0.100
45.800	12.276	0.100
45.900	24.714	0.100
46.000	19.237	0.100
46.100	31.627	0.100
46.200	22.785	0.100
46.300	31.194	0.100
46.400	27.236	0.100
46.500	25.389	0.100
46.600	15.424	0.100
46.700	13.802	0.100
46.800	40.034	0.100
46.900	23.844	0.100
47.000	13.252	0.100
47.100	21.947	0.100
47.200	24.390	0.100
47.300	30.492	0.100
47.400	14.914	0.100
47.500	23.159	0.100
47.600	20.455	0.100
47.700	6.713	0.100
47.800	19.619	0.100
47.900	30.522	0.100
48.000	19.609	0.100
48.100	20.819	0.100
48.200	21.117	0.100
48.300	18.087	0.100
48.400	17.186	0.100
48.500	16.286	0.100
48.600	21.000	0.100
48.700	14.934	0.100
48.800	-1.059	0.100
48.900	17.059	0.100
49.000	15.125	0.100
49.100	12.055	0.100
49.200	19.471	0.100
49.300	22.579	0.100
49.400	23.086	0.100
49.500	20.183	0.100
49.600	12.445	0.100
49.700	20.814	0.100
49.800	7.749	0.100
49.900	14.625	0.100
50.000	9.610	0.100
50.100	13.872	0.100
50.200	28.233	0.100
50.300	13.549	0.100
50.400	10.356	0.100
50.500	16.466	0.100
50.600	24.522	0.100
50.700	12.257	0.100
50.800	8.308	0.100
50.900	12.774	0.100
51.000	18.167	0.100
51.100	25.406	0.100
51.200	4.286	0.100
51.300	17.746	0.100
51.400	24.900	0.100
51.500	30.168	0.100
51.600	13.813	0.100
51.700	8.110	0.100
51.800	19.839	0.100
51.900	7.459	0.100
52.000	23.315	0.100
52.100	10.850	0.100
52.200	11.283	0.100
52.300	12.076	0.100
52.400	23.341	0.100
52.500	21.586	0.100
52.600	9.577	0.100
52.700	13.592	0.100
52.800	24.494	0.100
52.900	6.207	0.100
53.000	19.073	0.100
53.100	27.448	0.100
53.200	8.712	0.100
53.300	14.215	0.100
53.400	32.016	0.100
53.500	28.082	0.100
53.600	24.932	0.100
53.700	27.237	0.100
53.800	5.732	0.100
53.900	12.791	0.100
54.000	17.789	0.100
54.100	15.356	0.100
54.200	26.195	0.100
54.300	11.597	0.100
54.400	17.092	0.100
54.500	19.030	0.100
54.600	24.318	0.100
54.700	24.234	0.100
54.800	23.348	0.100
54.900	20.221	0.100
55.000	18.547	0.100
55.100	26.920	0.100
55.200	12.796	0.100
55.300	11.403	0.100
55.400	17.374	0.100
55.500	13.406	0.100
55.600	14.463	0.100
55.700	32.651	0.100
55.800	22.896	0.100
55.900	29.877	0.100
56.000	10.978	0.100
56.100	14.451	0.100
56.200	29.501	0.100
56.300	21.357	0.100
56.400	10.613	0.100
56.500	12.348	0.100
56.600	23.400	0.100
56.700	23.678	0.100
56.800	16.744	0.100
56.900	6.489	0.100
57.000	3.486	0.100
57.100	23.878	0.100
57.200	25.256	0.100
57.300	20.096	0.100
57.400	31.331	0.100
57.500	16.901	0.100
57.600	13.405	0.100
57.700	19.594	0.100
57.800	20.868	0.100
57.900	29.561	0.100
58.000	17.929	0.100
58.100	33.322	0.100
58.200	19.890	0.100
58.300	20.572	0.100
58.400	26.430	0.100
58.500	26.714	0.100
58.600	24.807	0.100
58.700	17.973	0.100
58.800	16.410	0.100
58.900	9.258	0.100
59.000	27.646	0.100
59.100	31.133	0.100
59.200	25.654	0.100
59.300	19.549	0.100
59.400	21.615	0.100
59.500	10.936	0.100
59.600	20.874	0.100
59.700	27.650	0.100
59.800	33.584	0.100
59.900	17.337	0.100
60.000	22.423	0.100
60.100	17.362	0.100
60.200	16.617	0.100
60.300	26.177	0.100
60.400	18.867	0.100
60.500	31.119	0.100
60.600	35.350	0.100
60.700	13.326	0.100
60.800	18.109	0.100
60.900	19.729	0.100
61.000	25.142	0.100
61.100	26.159	0.100
61.200	23.528	0.100
61.300	25.525	0.100
61.400	23.431	0.100
61.500	17.275	0.100
61.600	22.586	0.100
61.700	20.091	0.100
61.800	31.616	0.100
61.900	28.694	0.100
62.000	37.082	0.100
62.100	23.005	0.100
62.200	27.009	0.100
62.300	40.152	0.100
62.400	24.824	0.100
62.500	31.687	0.100
62.600	19.776	0.100
62.700	28.584	0.100
62.800	22.217	0.100
62.900	13.586	0.100
63.000	26.779	0.100
63.100	38.528	0.100
63.200	28.888	0.100
63.300	26.848	0.100
63.400	26.317	0.100
63.500	24.932	0.100
63.600	21.051	0.100
63.700	25.250	0.100
63.800	25.689	0.100
63.900	21.655	0.100
64.000	30.497	0.100
64.100	26.974	0.100
64.200	34.322	0.100
64.300	15.256	0.100
64.400	26.537	0.100
64.500	26.530	0.100
64.600	23.577	0.100
64.700	27.668	0.100
64.800	6.716	0.100
64.900	30.765	0.100
65.000	24.706	0.100
65.100	35.981	0.100
65.200	25.446	0.100
65.300	26.012	0.100
65.400	29.159	0.100
65.500	25.939	0.100
65.600	25.267	0.100
65.700	29.119	0.100
65.800	33.357	0.100
65.900	19.777	0.100
66.000	37.871	0.100
66.100	37.590	0.100
66.200	24.964	0.100
66.300	16.758	0.100
66.400	21.169	0.100
66.500	25.529	0.100
66.600	33.803	0.100
66.700	43.426	0.100
66.800	33.770	0.100
66.900	20.394	0.100
67.000	31.940	0.100
67.100	25.996	0.100
67.200	28.872	0.100
67.300	31.332	0.100
67.400	26.345	0.100
67.500	29.956	0.100
67.600	16.703	0.100
67.700	34.932	0.100
67.800	35.492	0.100
67.900	21.630	0.100
68.000	24.851	0.100
68.100	26.243	0.100
68.200	38.423	0.100
68.300	30.767	0.100
68.400	35.349	0.100
68.500	35.907	0.100
68.600	31.358	0.100
68.700	28.981	0.100
68.800	22.620	0.100
68.900	32.279	0.100
69.000	35.846	0.100
69.100	27.541	0.100
69.200	19.960	0.100
69.300	23.614	0.100
69.400	28.792	0.100
69.500	36.185	0.100
69.600	36.632	0.100
69.700	34.573	0.100
69.800	34.902	0.100
69.900	26.992	0.100
70.000	39.459	0.100
70.100	39.436	0.100
70.200	30.352	0.100
70.300	26.089	0.100
70.400	18.614	0.100
70.500	24.182	0.100
70.600	25.405	0.100
70.700	36.253	0.100
70.800	33.426	0.100
70.900	32.576	0.100
71.000	37.938	0.100
71.100	16.772	0.100
71.200	50.249	0.100
71.300	36.906	0.100
71.400	31.751	0.100
71.500	29.174	0.100
71.600	26.835	0.100
71.700	23.409	0.100
71.800	27.264	0.100
71.900	30.834	0.100
72.000	38.245	0.100
72.100	31.966	0.100
72.200	31.169	0.100
72.300	44.152	0.100
72.400	36.454	0.100
72.500	22.971	0.100
72.600	40.564	0.100
72.700	37.945	0.100
72.800	22.557	0.100
72.900	27.852	0.100
73.000	26.456	0.100
73.100	30.217	0.100
73.200	33.023	0.100
73.300	41.485	0.100
73.400	31.643	0.100
73.500	51.559	0.100
73.600	34.610	0.100
73.700	18.382	0.100
73.800	24.998	0.100
73.900	44.829	0.100
74.000	29.725	0.100
74.100	37.665	0.100
74.200	42.845	0.100
74.300	30.863	0.100
74.400	28.234	0.100
74.500	42.567	0.100
74.600	35.153	0.100
74.700	37.464	0.100
74.800	50.688	0.100
74.900	30.873	0.100
75.000	18.890	0.100
75.100	19.997	0.100
75.200	37.735	0.100
75.300	43.735	0.100
75.400	30.097	0.100
75.500	30.476	0.100
75.600	37.712	0.100
75.700	38.144	0.100
75.800	45.389	0.100
75.900	41.738	0.100
76.000	44.039	0.100
76.100	31.456	0.100
76.200	31.355	0.100
76.300	41.083	0.100
76.400	22.148	0.100
76.500	28.627	0.100
76.600	43.954	0.100
76.700	38.752	0.100
76.800	28.743	0.100
76.900	25.839	0.100
77.000	31.988	0.100
77.100	32.111	0.100
77.200	43.119	0.100
77.300	39.073	0.100
77.400	38.740	0.100
77.500	29.417	0.100
77.600	50.935	0.100
77.700	25.762	0.100
77.800	33.286	0.100
77.900	38.363	0.100
78.000	41.546	0.100
78.100	45.949	0.100
78.200	34.157	0.100
78.300	33.575	0.100
78.400	46.553	0.100
78.500	38.012	0.100
78.600	46.748	0.100
78.700	39.875	0.100
78.800	33.929	0.100
78.900	38.955	0.100
79.000	28.443	0.100
79.100	39.078	0.100
79.200	44.327	0.100
79.300	42.956	0.100
79.400	42.430	0.100
79.500	43.699	0.100
79.600	31.768	0.100
79.700	34.598	0.100
79.800	46.061	0.100
79.900	26.003	0.100
80.000	30.961	0.100
80.100	25.712	0.100
80.200	31.854	0.100
80.300	28.882	0.100
80.400	45.517	0.100
80.500	41.671	0.100
80.600	43.783	0.100
80.700	41.547	0.100
80.800	50.556	0.100
80.900	45.332	0.100
81.000	36.481	0.100
81.100	41.737	0.100
81.200	39.947	0.100
81.300	38.940	0.100
81.400	25.528	0.100
81.500	35.328	0.100
81.600	31.887	0.100
81.700	43.047	0.100
81.800	44.117	0.100
81.900	45.300	0.100
82.000	37.096	0.100
82.100	23.415	0.100
82.200	31.154	0.100
82.300	52.692	0.100
82.400	29.069	0.100
82.500	35.376	0.100
82.600	35.824	0.100
82.700	42.775	0.100
82.800	50.542	0.100
82.900	47.169	0.100
83.000	47.021	0.100
83.100	30.424	0.100
83.200	51.231	0.100
83.300	42.218	0.100
83.400	38.844	0.100
83.500	43.163	0.100
83.600	38.463	0.100
83.700	34.095	0.100
83.800	43.680	0.100
83.900	40.087	0.100
84.000	50.723	0.100
84.100	43.754	0.100
84.200	39.025	0.100
84.300	54.185	0.100
84.400	49.425	0.100
84.500	34.301	0.100
84.600	37.558	0.100
84.700	37.387	0.100
84.800	33.472	0.100
84.900	36.213	0.100
85.000	42.401	0.100
85.100	39.162	0.100
85.200	54.833	0.100
85.300	51.583	0.100
85.400	41.117	0.100
85.500	51.228	0.100
85.600	41.951	0.100
85.700	41.626	0.100
85.800	40.886	0.100
85.900	36.807	0.100
86.000	50.303	0.100
86.100	35.268	0.100
86.200	37.978	0.100
86.300	45.197	0.100
86.400	50.560	0.100
86.500	43.588	0.100
86.600	33.316	0.100
86.700	47.661	0.100
86.800	37.607	0.100
86.900	20.232	0.100
87.000	48.228	0.100
87.100	51.961	0.100
87.200	46.129	0.100
87.300	42.596	0.100
87.400	45.217	0.100
87.500	40.004	0.100
87.600	42.043	0.100
87.700	50.091	0.100
87.800	45.182	0.100
87.900	38.753	0.100
88.000	44.631	0.100
88.100	49.446	0.100
88.200	27.139	0.100
88.300	41.721	0.100
88.400	44.833	0.100
88.500	44.904	0.100
88.600	40.375	0.100
88.700	37.726	0.100
88.800	49.315	0.100
88.900	41.409	0.100
89.000	41.152	0.100
89.100	43.704	0.100
89.200	47.097	0.100
89.300	43.374	0.100
89.400	42.853	0.100
89.500	39.714	0.100
89.600	52.244	0.100
89.700	39.959	0.100
89.800	44.272	0.100
89.900	32.173	0.100
90.000	36.162	0.100
90.100	38.791	0.100
90.200	47.680	0.100
90.300	49.620	0.100
90.400	29.921	0.100
90.500	45.490	0.100
90.600	32.304	0.100
90.700	23.387	0.100
90.800	21.062	0.100
90.900	17.283	0.100
91.000	16.098	0.100
91.100	9.665	0.100
91.200	7.905	0.100
91.300	8.389	0.100
91.400	19.092	0.100
91.500	-4.452	0.100
91.600	-6.266	0.100
91.700	-6.989	0.100
91.800	1.663	0.100
91.900	2.414	0.100
92.000	-0.102	0.100
92.100	-12.162	0.100
92.200	-13.772	0.100
92.300	-4.738	0.100
92.400	-24.581	0.100
92.500	-11.850	0.100
92.600	-21.308	0.100
92.700	-27.376	0.100
92.800	-24.692	0.100
92.900	-28.189	0.100
93.000	-21.463	0.100
93.100	-18.816	0.100
93.200	-33.332	0.100
93.300	-21.445	0.100
93.400	-33.965	0.100
93.500	-32.221	0.100
93.600	-22.534	0.100
93.700	-21.629	0.100
93.800	-39.388	0.100
93.900	-27.473	0.100
94.000	-31.907	0.100
