time /s	I /nA	E /V
0.100	-68.939	0.101
0.200	-49.050	0.101
0.300	-57.091	0.101
0.400	-47.879	0.101
0.500	-57.275	0.101
0.600	-52.615	0.101
0.700	-60.242	0.101
0.800	-61.232	0.101
0.900	-62.767	0.101
1.000	-49.527	0.101
1.100	-52.730	0.101
1.200	-55.043	0.101
1.300	-46.339	0.101
1.400	-60.522	0.101
1.500	-62.277	0.101
1.600	-47.733	0.101
1.700	-58.110	0.101
1.800	-62.187	0.101
1.900	-51.083	0.101
2.000	-51.647	0.101
2.100	-50.553	0.101
2.200	-54.221	0.101
2.300	-50.910	0.101
2.400	-47.531	0.101
2.500	-58.190	0.101
2.600	-43.461	0.101
2.700	-53.792	0.101
2.800	-37.972	0.101
2.900	-58.110	0.101
3.000	-53.142	0.101
3.100	-52.661	0.101
3.200	-45.253	0.101
3.300	-49.696	0.101
3.400	-50.707	0.101
3.500	-43.793	0.101
3.600	-52.478	0.101
3.700	-47.886	0.101
3.800	-57.381	0.101
3.900	-48.815	0.101
4.000	-55.562	0.101
4.100	-47.502	0.101
4.200	-57.725	0.101
4.300	-48.500	0.101
4.400	-55.416	0.101
4.500	-52.461	0.101
4.600	-50.691	0.101
4.700	-58.388	0.100
4.800	-58.066	0.101
4.900	-51.930	0.101
5.000	-51.816	0.101
5.100	-43.415	0.101
5.200	-49.241	0.101
5.300	-49.050	0.101
5.400	-52.972	0.101
5.500	-53.837	0.101
5.600	-41.955	0.101
5.700	-55.449	0.101
5.800	-53.985	0.101
5.900	-57.892	0.101
6.000	-55.909	0.101
6.100	-55.589	0.101
6.200	-54.777	0.101
6.300	-54.621	0.101
6.400	-45.853	0.101
6.500	-49.286	0.101
6.600	-49.387	0.101
6.700	-52.279	0.101
6.800	-48.198	0.101
6.900	-44.118	0.101
7.000	-50.806	0.101
7.100	-51.744	0.101
7.200	-54.953	0.100
7.300	-50.269	0.101
7.400	-45.732	0.101
7.500	-55.045	0.101
7.600	-47.765	0.101
7.700	-50.759	0.101
7.800	-42.533	0.101
7.900	-57.290	0.101
8.000	-50.787	0.101
8.100	-52.533	0.101
8.200	-44.886	0.101
8.300	-45.136	0.101
8.400	-51.631	0.100
8.500	-60.206	0.101
8.600	-43.874	0.101
8.700	-54.960	0.101
8.800	-45.634	0.101
8.900	-42.815	0.101
9.000	-52.674	0.101
9.100	-50.662	0.101
9.200	-42.924	0.101
9.300	-54.471	0.101
9.400	-58.866	0.101
9.500	-62.014	0.101
9.600	-52.707	0.101
9.700	-55.710	0.101
9.800	-51.292	0.101
9.900	-54.174	0.101
10.000	-47.132	0.101
10.100	-42.160	0.101
10.200	-42.386	0.101
10.300	-47.234	0.101
10.400	-52.535	0.101
10.500	-51.885	0.101
10.600	-45.843	0.101
10.700	-39.545	0.101
10.800	-53.439	0.101
10.900	-50.090	0.101
11.000	-55.284	0.101
11.100	-41.818	0.101
11.200	-56.426	0.101
11.300	-55.821	0.101
11.400	-45.651	0.101
11.500	-40.843	0.101
11.600	-48.696	0.101
11.700	-50.815	0.101
11.800	-57.369	0.101
11.900	-55.982	0.101
12.000	-40.026	0.101
12.100	-50.760	0.101
12.200	-49.057	0.101
12.300	-46.276	0.101
12.400	-52.295	0.101
12.500	-51.504	0.101
12.600	-51.415	0.101
12.700	-51.034	0.101
12.800	-46.252	0.101
12.900	-49.248	0.101
13.000	-52.458	0.101
13.100	-51.786	0.101
13.200	-48.326	0.101
13.300	-53.826	0.101
13.400	-41.987	0.100
13.500	-46.682	0.101
13.600	-47.868	0.101
13.700	-47.146	0.101
13.800	-47.131	0.101
13.900	-44.600	0.101
14.000	-45.998	0.101
14.100	-48.745	0.101
14.200	-46.155	0.101
14.300	-47.081	0.101
14.400	-42.714	0.101
14.500	-40.830	0.101
14.600	-58.146	0.101
14.700	-44.763	0.101
14.800	-51.823	0.101
14.900	-50.942	0.101
15.000	-51.949	0.101
15.100	-51.670	0.101
15.200	-53.560	0.101
15.300	-46.290	0.101
15.400	-46.857	0.101
15.500	-43.737	0.101
15.600	-37.925	0.101
15.700	-46.641	0.101
15.800	-48.372	0.101
15.900	-46.139	0.101
16.000	-51.056	0.101
16.100	-48.600	0.101
16.200	-41.623	0.101
16.300	-46.359	0.101
16.400	-46.088	0.101
16.500	-50.087	0.101
16.600	-39.293	0.101
16.700	-48.930	0.101
16.800	-42.840	0.101
16.900	-52.168	0.101
17.000	-49.709	0.101
17.100	-47.978	0.101
17.200	-42.885	0.101
17.300	-37.905	0.101
17.400	-53.192	0.101
17.500	-42.028	0.101
17.600	-45.190	0.101
17.700	-42.053	0.101
17.800	-56.367	0.101
17.900	-51.769	0.101
18.000	-43.593	0.101
18.100	-47.589	0.101
18.200	-54.614	0.101
18.300	-48.163	0.101
18.400	-42.369	0.101
18.500	-38.588	0.101
18.600	-37.426	0.101
18.700	-44.702	0.101
18.800	-38.124	0.101
18.900	-49.352	0.101
19.000	-43.169	0.101
19.100	-45.861	0.101
19.200	-47.015	0.101
19.300	-36.334	0.101
19.400	-45.885	0.101
19.500	-41.731	0.101
19.600	-54.766	0.101
19.700	-43.722	0.101
19.800	-45.617	0.101
19.900	-39.062	0.101
20.000	-46.123	0.101
20.100	-59.634	0.101
20.200	-48.441	0.101
20.300	-45.275	0.101
20.400	-47.277	0.101
20.500	-47.586	0.101
20.600	-44.666	0.101
20.700	-45.449	0.101
20.800	-56.014	0.101
20.900	-59.789	0.100
21.000	-43.716	0.101
21.100	-47.009	0.101
21.200	-40.566	0.101
21.300	-41.613	0.101
21.400	-47.031	0.101
21.500	-51.448	0.101
21.600	-50.163	0.101
21.700	-48.839	0.101
21.800	-45.554	0.101
21.900	-35.111	0.101
22.000	-46.648	0.101
22.100	-33.761	0.101
22.200	-41.309	0.101
22.300	-46.975	0.101
22.400	-50.294	0.100
22.500	-38.702	0.101
22.600	-49.603	0.101
22.700	-46.921	0.101
22.800	-44.287	0.101
22.900	-44.984	0.101
23.000	-36.021	0.101
23.100	-46.592	0.101
23.200	-46.174	0.101
23.300	-53.104	0.101
23.400	-44.749	0.101
23.500	-47.045	0.101
23.600	-45.252	0.101
23.700	-42.578	0.101
23.800	-45.965	0.101
23.900	-51.213	0.101
24.000	-47.857	0.101
24.100	-47.474	0.101
24.200	-39.265	0.101
24.300	-30.011	0.101
24.400	-46.211	0.101
24.500	-56.608	0.101
24.600	-45.246	0.101
24.700	-38.997	0.100
24.800	-42.881	0.101
24.900	-48.344	0.101
25.000	-48.470	0.101
25.100	-49.709	0.101
25.200	-45.707	0.101
25.300	-43.302	0.101
25.400	-39.550	0.101
25.500	-32.311	0.101
25.600	-53.644	0.101
25.700	-42.773	0.101
25.800	-46.142	0.101
25.900	-46.175	0.101
26.000	-40.512	0.101
26.100	-48.930	0.101
26.200	-45.714	0.101
26.300	-42.044	0.101
26.400	-61.308	0.101
26.500	-46.880	0.101
26.600	-36.135	0.101
26.700	-38.165	0.101
26.800	-40.322	0.101
26.900	-35.542	0.101
27.000	-47.403	0.101
27.100	-43.251	0.101
27.200	-45.708	0.101
27.300	-47.792	0.101
27.400	-45.025	0.101
27.500	-48.071	0.101
27.600	-36.961	0.101
27.700	-41.455	0.101
27.800	-46.321	0.101
27.900	-35.183	0.101
28.000	-33.637	0.101
28.100	-46.083	0.101
28.200	-46.000	0.101
28.300	-51.521	0.101
28.400	-42.714	0.101
28.500	-39.908	0.101
28.600	-43.392	0.101
28.700	-43.203	0.101
28.800	-37.301	0.101
28.900	-42.510	0.101
29.000	-44.976	0.101
29.100	-40.697	0.101
29.200	-38.484	0.101
29.300	-40.113	0.101
29.400	-50.942	0.101
29.500	-43.791	0.101
29.600	-49.950	0.101
29.700	-34.691	0.101
29.800	-29.718	0.101
29.900	-41.894	0.101
30.000	-36.942	0.101
30.100	-40.146	0.101
30.200	-30.833	0.101
30.300	-36.558	0.101
30.400	-39.396	0.101
30.500	-31.520	0.101
30.600	-31.815	0.101
30.700	-37.315	0.101
30.800	-28.300	0.101
30.900	-36.172	0.101
31.000	-28.058	0.101
31.100	-25.855	0.101
31.200	-15.817	0.100
31.300	-28.841	0.101
31.400	-20.965	0.101
31.500	-39.152	0.101
31.600	-29.033	0.101
31.700	-16.562	0.101
31.800	-18.649	0.101
31.900	-16.337	0.101
32.000	-18.312	0.101
32.100	-18.616	0.101
32.200	-24.705	0.101
32.300	-19.038	0.101
32.400	-14.487	0.101
32.500	-15.560	0.101
32.600	-11.053	0.101
32.700	-18.184	0.101
32.800	-8.627	0.101
32.900	-15.308	0.101
33.000	-11.673	0.101
33.100	-16.039	0.101
33.200	-16.520	0.101
33.300	-13.705	0.101
33.400	-10.603	0.101
33.500	-18.813	0.101
33.600	-18.151	0.101
33.700	-12.963	0.101
33.800	-16.023	0.101
33.900	-10.014	0.101
34.000	-11.477	0.101
34.100	-5.647	0.101
34.200	-13.785	0.101
34.300	-8.295	0.101
34.400	-14.133	0.101
34.500	-12.157	0.101
34.600	-6.908	0.101
34.700	-6.093	0.101
34.800	5.357	0.101
34.900	-11.566	0.101
35.000	-9.162	0.101
35.100	-8.349	0.101
35.200	-4.693	0.101
35.300	-9.189	0.101
35.400	-17.574	0.101
35.500	-9.551	0.101
35.600	-3.676	0.101
35.700	-10.513	0.101
35.800	-6.930	0.101
35.900	2.099	0.101
36.000	4.115	0.101
36.100	1.016	0.101
36.200	-7.769	0.101
36.300	6.522	0.101
36.400	-1.475	0.101
36.500	-11.352	0.101
36.600	0.291	0.101
36.700	10.219	0.101
36.800	3.895	0.101
36.900	-6.782	0.101
37.000	-5.184	0.101
37.100	-6.226	0.101
37.200	7.706	0.101
37.300	-2.723	0.101
37.400	-0.917	0.101
37.500	7.039	0.101
37.600	6.846	0.101
37.700	-2.917	0.101
37.800	13.345	0.101
37.900	3.362	0.101
38.000	13.083	0.101
38.100	7.678	0.101
38.200	10.456	0.101
38.300	9.162	0.101
38.400	9.745	0.101
38.500	16.792	0.101
38.600	1.571	0.101
38.700	14.958	0.101
38.800	13.231	0.101
38.900	9.363	0.101
39.000	6.602	0.101
39.100	12.899	0.101
39.200	8.779	0.101
39.300	21.507	0.101
39.400	10.956	0.101
39.500	13.531	0.101
39.600	1.993	0.101
39.700	7.378	0.101
39.800	12.206	0.101
39.900	11.574	0.101
40.000	1.529	0.101
40.100	16.013	0.101
40.200	16.751	0.101
40.300	13.182	0.101
40.400	8.040	0.101
40.500	-0.834	0.101
40.600	11.037	0.101
40.700	20.668	0.101
40.800	15.514	0.101
40.900	19.139	0.101
41.000	9.929	0.101
41.100	13.906	0.101
41.200	20.689	0.101
41.300	11.622	0.101
41.400	4.493	0.101
41.500	12.139	0.101
41.600	14.951	0.101
41.700	22.841	0.101
41.800	16.683	0.101
41.900	21.163	0.101
42.000	16.433	0.101
42.100	9.191	0.101
42.200	23.671	0.101
42.300	14.245	0.101
42.400	23.507	0.101
42.500	17.317	0.101
42.600	20.501	0.101
42.700	19.881	0.101
42.800	21.583	0.101
42.900	13.370	0.101
43.000	15.389	0.101
43.100	4.351	0.101
43.200	17.599	0.101
43.300	10.097	0.101
43.400	13.633	0.101
43.500	15.550	0.101
43.600	11.111	0.101
43.700	19.400	0.101
43.800	9.951	0.101
43.900	12.324	0.101
44.000	9.186	0.101
44.100	22.254	0.101
44.200	13.082	0.101
44.300	15.693	0.101
44.400	10.343	0.101
44.500	14.205	0.101
44.600	15.803	0.101
44.700	16.937	0.101
44.800	16.355	0.101
44.900	23.422	0.101
45.000	19.447	0.101
45.100	6.603	0.101
45.200	1.069	0.101
45.300	16.750	0.101
45.400	28.806	0.101
45.500	22.276	0.101
45.600	14.985	0.101
45.700	18.248	0.101
45.800	14.402	0.101
45.900	8.959	0.101
46.000	6.452	0.101
46.100	22.083	0.101
46.200	12.087	0.101
46.300	13.270	0.101
46.400	19.131	0.101
46.500	5.703	0.101
46.600	25.043	0.101
46.700	6.485	0.101
46.800	9.597	0.101
46.900	7.044	0.101
47.000	14.881	0.101
47.100	8.709	0.101
47.200	5.698	0.101
47.300	-2.307	0.101
47.400	11.332	0.101
47.500	5.809	0.101
47.600	-6.192	0.101
47.700	2.797	0.101
47.800	18.380	0.101
47.900	10.012	0.101
48.000	8.406	0.101
48.100	6.413	0.101
48.200	6.946	0.101
48.300	-1.660	0.101
48.400	4.704	0.101
48.500	10.934	0.101
48.600	14.864	0.101
48.700	18.542	0.101
48.800	0.916	0.101
48.900	6.664	0.101
49.000	3.693	0.101
49.100	2.362	0.101
49.200	0.839	0.101
49.300	2.769	0.101
49.400	1.717	0.101
49.500	10.524	0.101
49.600	10.898	0.101
49.700	7.140	0.101
49.800	5.337	0.101
49.900	4.044	0.101
50.000	-2.388	0.101
50.100	-1.043	0.101
50.200	-4.247	0.101
50.300	11.874	0.101
50.400	-2.725	0.101
50.500	1.242	0.101
50.600	14.592	0.101
50.700	-1.259	0.101
50.800	5.461	0.101
50.900	12.488	0.101
51.000	8.659	0.101
51.100	-3.705	0.101
51.200	-2.475	0.101
51.300	-3.498	0.101
51.400	-5.660	0.101
51.500	3.805	0.101
51.600	0.160	0.101
51.700	6.405	0.101
51.800	9.464	0.101
51.900	0.621	0.101
52.000	-2.711	0.101
52.100	-0.261	0.101
52.200	8.959	0.101
52.300	8.192	0.101
52.400	-5.600	0.101
52.500	2.320	0.101
52.600	-3.467	0.101
52.700	-3.592	0.101
52.800	-1.889	0.101
52.900	9.999	0.101
53.000	-1.942	0.101
53.100	-0.642	0.101
53.200	-1.744	0.101
53.300	2.988	0.101
53.400	-6.139	0.101
53.500	5.488	0.101
53.600	7.135	0.101
53.700	-1.227	0.101
53.800	-2.834	0.101
53.900	-1.157	0.101
54.000	-0.328	0.101
54.100	-2.461	0.101
54.200	0.689	0.101
54.300	2.394	0.101
54.400	-7.519	0.101
54.500	2.013	0.101
54.600	7.351	0.101
54.700	0.799	0.101
54.800	-3.303	0.101
54.900	-0.299	0.101
55.000	-2.263	0.101
55.100	1.118	0.101
55.200	5.389	0.101
55.300	2.260	0.101
55.400	1.273	0.101
55.500	0.027	0.101
55.600	-9.047	0.101
55.700	4.449	0.101
55.800	1.503	0.101
55.900	-3.457	0.101
56.000	-3.356	0.101
56.100	-8.299	0.101
56.200	-2.606	0.101
56.300	3.827	0.101
56.400	5.404	0.101
56.500	1.852	0.101
56.600	5.843	0.101
56.700	-5.498	0.101
56.800	4.599	0.101
56.900	-10.412	0.101
57.000	1.861	0.101
57.100	2.749	0.101
57.200	8.684	0.101
57.300	0.481	0.101
57.400	-2.790	0.101
57.500	-1.473	0.101
57.600	6.753	0.101
57.700	-3.696	0.101
57.800	-5.301	0.101
57.900	0.062	0.101
58.000	2.425	0.101
58.100	4.384	0.101
58.200	2.478	0.101
58.300	-4.809	0.101
58.400	-6.853	0.101
58.500	0.384	0.101
58.600	2.402	0.101
58.700	3.226	0.101
58.800	-1.878	0.101
58.900	-3.772	0.101
59.000	-12.298	0.101
59.100	-0.812	0.101
59.200	8.092	0.101
59.300	-4.897	0.101
59.400	2.095	0.101
59.500	-4.989	0.101
59.600	1.111	0.101
59.700	-0.699	0.101
59.800	-1.206	0.101
59.900	-10.399	0.101
60.000	-6.504	0.101
60.100	0.065	0.101
60.200	-3.877	0.101
60.300	2.459	0.101
60.400	1.752	0.101
60.500	3.777	0.101
60.600	2.438	0.101
60.700	-14.485	0.101
60.800	2.181	0.101
60.900	8.392	0.101
61.000	-4.233	0.101
61.100	-2.916	0.101
61.200	1.566	0.101
61.300	-0.709	0.101
61.400	2.722	0.101
61.500	0.787	0.101
61.600	-3.386	0.101
61.700	-4.757	0.101
61.800	-8.679	0.101
61.900	-6.613	0.101
62.000	-1.703	0.101
62.100	1.136	0.101
62.200	6.296	0.101
62.300	-0.401	0.101
62.400	-3.124	0.101
62.500	2.915	0.101
62.600	-12.072	0.101
62.700	3.168	0.101
62.800	-7.780	0.101
62.900	0.843	0.101
63.000	1.069	0.101
63.100	-0.549	0.101
63.200	4.804	0.101
63.300	0.172	0.101
63.400	7.854	0.101
63.500	9.879	0.101
63.600	-4.385	0.101
63.700	7.927	0.101
63.800	9.714	0.101
63.900	1.437	0.101
64.000	5.831	0.101
64.100	3.691	0.101
64.200	-7.887	0.101
64.300	-3.435	0.101
64.400	5.761	0.101
64.500	-3.132	0.101
64.600	-0.381	0.101
64.700	4.665	0.101
64.800	-4.747	0.101
64.900	-5.336	0.101
65.000	-1.838	0.101
65.100	9.140	0.101
65.200	-2.078	0.101
65.300	4.589	0.101
65.400	3.902	0.101
65.500	9.173	0.101
65.600	4.622	0.101
65.700	0.215	0.101
65.800	-0.261	0.101
65.900	2.010	0.101
66.000	-8.252	0.101
66.100	9.822	0.101
66.200	8.516	0.101
66.300	-1.309	0.101
66.400	-6.642	0.101
66.500	2.866	0.101
66.600	-1.685	0.101
66.700	12.036	0.101
66.800	1.464	0.101
66.900	-2.343	0.101
67.000	0.707	0.101
67.100	4.687	0.101
67.200	-2.328	0.101
67.300	-9.648	0.100
67.400	2.388	0.101
67.500	-0.813	0.101
67.600	-1.487	0.101
67.700	-3.755	0.101
67.800	0.460	0.101
67.900	7.700	0.101
68.000	4.864	0.101
68.100	-0.528	0.101
68.200	11.415	0.101
68.300	-1.113	0.101
68.400	0.460	0.101
68.500	1.927	0.101
68.600	3.447	0.101
68.700	-3.003	0.101
68.800	1.716	0.101
68.900	-6.734	0.101
69.000	6.959	0.101
69.100	6.178	0.101
69.200	7.185	0.101
69.300	0.032	0.101
69.400	-7.500	0.101
69.500	-0.095	0.101
69.600	9.204	0.101
69.700	2.271	0.101
69.800	12.054	0.101
69.900	3.048	0.101
70.000	3.909	0.101
70.100	1.935	0.101
70.200	-10.085	0.101
70.300	9.186	0.101
70.400	3.006	0.101
70.500	4.220	0.101
70.600	-1.903	0.101
70.700	-5.900	0.101
70.800	6.152	0.101
70.900	0.606	0.101
71.000	5.398	0.101
71.100	2.685	0.101
71.200	-11.048	0.101
71.300	2.121	0.101
71.400	2.845	0.101
71.500	6.166	0.101
71.600	4.078	0.101
71.700	-2.333	0.101
71.800	5.921	0.101
71.900	3.333	0.101
72.000	3.529	0.101
72.100	1.028	0.101
72.200	9.611	0.101
72.300	-1.087	0.101
72.400	6.276	0.101
72.500	15.745	0.101
72.600	1.457	0.101
72.700	1.383	0.101
72.800	2.823	0.101
72.900	11.435	0.101
73.000	-0.082	0.101
73.100	6.387	0.101
73.200	17.704	0.101
73.300	10.435	0.101
73.400	11.878	0.101
73.500	2.822	0.101
73.600	5.581	0.101
73.700	-6.543	0.101
73.800	2.356	0.101
73.900	8.446	0.101
74.000	2.261	0.101
74.100	7.448	0.101
74.200	12.449	0.101
74.300	3.917	0.101
74.400	3.940	0.101
74.500	4.933	0.101
74.600	-1.064	0.100
74.700	1.903	0.101
74.800	-1.227	0.101
74.900	7.122	0.101
75.000	-4.020	0.101
75.100	0.257	0.101
75.200	14.692	0.101
75.300	12.393	0.101
75.400	0.160	0.101
75.500	10.772	0.101
75.600	15.981	0.101
75.700	19.818	0.101
75.800	2.679	0.101
75.900	-3.004	0.101
76.000	13.981	0.101
76.100	12.400	0.101
76.200	5.544	0.101
76.300	7.503	0.101
76.400	3.413	0.101
76.500	2.295	0.101
76.600	8.816	0.101
76.700	14.874	0.101
76.800	8.361	0.101
76.900	7.024	0.101
77.000	7.011	0.101
77.100	2.239	0.101
77.200	-2.007	0.101
77.300	18.925	0.101
77.400	20.351	0.101
77.500	19.967	0.101
77.600	15.151	0.101
77.700	7.470	0.101
77.800	6.788	0.101
77.900	3.164	0.101
78.000	10.283	0.101
78.100	1.188	0.101
78.200	1.505	0.101
78.300	4.069	0.101
78.400	2.522	0.101
78.500	11.659	0.101
78.600	6.582	0.101
78.700	15.161	0.101
78.800	9.926	0.101
78.900	20.091	0.101
79.000	7.605	0.101
79.100	10.308	0.101
79.200	2.814	0.101
79.300	6.051	0.101
79.400	11.276	0.101
79.500	13.518	0.101
79.600	9.809	0.101
79.700	10.674	0.101
79.800	9.537	0.101
79.900	10.305	0.101
80.000	4.073	0.101
80.100	9.006	0.100
80.200	4.532	0.101
80.300	10.814	0.101
80.400	3.786	0.101
80.500	5.107	0.101
80.600	13.347	0.101
80.700	10.753	0.101
80.800	2.615	0.101
80.900	15.955	0.101
81.000	14.219	0.101
81.100	12.298	0.101
81.200	1.386	0.101
81.300	7.112	0.101
81.400	11.862	0.101
81.500	-1.258	0.101
81.600	8.692	0.101
81.700	-0.988	0.101
81.800	17.734	0.101
81.900	8.786	0.101
82.000	13.346	0.101
82.100	17.251	0.101
82.200	10.539	0.101
82.300	1.888	0.101
82.400	5.835	0.101
82.500	16.049	0.101
82.600	8.730	0.101
82.700	12.596	0.101
82.800	14.510	0.101
82.900	8.800	0.101
83.000	11.803	0.101
83.100	2.269	0.101
83.200	19.299	0.101
83.300	10.112	0.101
83.400	17.579	0.101
83.500	14.246	0.101
83.600	7.178	0.101
83.700	14.261	0.101
83.800	8.531	0.101
83.900	11.580	0.101
84.000	20.419	0.101
84.100	18.410	0.101
84.200	6.178	0.101
84.300	18.469	0.101
84.400	7.058	0.101
84.500	17.931	0.101
84.600	8.198	0.101
84.700	8.348	0.101
84.800	13.366	0.101
84.900	5.097	0.101
85.000	14.619	0.101
85.100	22.015	0.101
85.200	17.230	0.101
85.300	8.851	0.101
85.400	6.116	0.101
85.500	4.347	0.101
85.600	14.317	0.101
85.700	12.199	0.101
85.800	22.680	0.101
85.900	10.121	0.101
86.000	12.030	0.101
86.100	15.948	0.101
86.200	14.768	0.101
86.300	13.050	0.101
86.400	5.439	0.101
86.500	18.524	0.101
86.600	3.750	0.101
86.700	7.287	0.101
86.800	17.589	0.101
86.900	16.906	0.101
87.000	14.024	0.101
87.100	11.144	0.101
87.200	18.766	0.101
87.300	10.770	0.101
87.400	1.488	0.101
87.500	13.025	0.101
87.600	14.950	0.101
87.700	17.429	0.101
87.800	26.812	0.101
87.900	17.000	0.101
88.000	14.584	0.101
88.100	14.522	0.101
88.200	5.982	0.101
88.300	14.515	0.101
88.400	16.148	0.101
88.500	10.817	0.101
88.600	10.001	0.101
88.700	13.321	0.101
88.800	21.467	0.101
88.900	16.828	0.101
89.000	12.905	0.101
89.100	10.605	0.100
89.200	15.095	0.101
89.300	14.748	0.101
89.400	15.217	0.101
89.500	6.869	0.101
89.600	18.197	0.101
89.700	9.923	0.101
89.800	14.658	0.101
89.900	17.601	0.101
90.000	10.647	0.101
90.100	9.598	0.101
90.200	11.467	0.101
90.300	6.512	0.101
90.400	12.982	0.101
90.500	-5.147	0.101
90.600	7.073	0.101
90.700	-3.344	0.100
90.800	-4.076	0.101
90.900	-0.435	0.101
91.000	0.238	0.101
91.100	2.754	0.101
91.200	-1.076	0.101
91.300	-0.206	0.101
91.400	-8.862	0.101
91.500	1.010	0.101
91.600	-9.754	0.101
91.700	-10.365	0.101
91.800	-11.884	0.101
91.900	-14.308	0.101
92.000	-11.012	0.101
92.100	-12.160	0.101
92.200	-21.340	0.101
92.300	-9.097	0.101
92.400	-16.074	0.101
92.500	-17.207	0.101
92.600	-20.868	0.101
92.700	-21.071	0.101
92.800	-10.693	0.101
92.900	-18.337	0.101
93.000	-26.623	0.101
93.100	-31.693	0.101
93.200	-15.502	0.101
93.300	-30.316	0.101
93.400	-22.022	0.101
93.500	-36.238	0.101
93.600	-28.675	0.100
93.700	-22.431	0.101
93.800	-29.198	0.101
93.900	-28.744	0.101
94.000	-26.292	0.101
94.100	-32.011	0.101
94.200	-33.644	0.101
94.300	-31.748	0.100
94.400	-20.712	0.101
94.500	-31.701	0.101
94.600	-28.637	0.101
94.700	-29.281	0.100
94.800	-37.462	0.101
94.900	-27.374	0.101
