time /s	I /nA	E /V
0.100	-43.575	0.100
0.200	-41.533	0.100
0.300	-35.595	0.100
0.400	-32.644	0.100
0.500	-26.613	0.100
0.600	-17.086	0.100
0.700	-32.852	0.100
0.800	-24.915	0.100
0.900	-27.071	0.100
1.000	-32.285	0.100
1.100	-33.844	0.100
1.200	-32.222	0.100
1.300	-25.599	0.100
1.400	-27.624	0.100
1.500	-33.168	0.100
1.600	-34.684	0.100
1.700	-38.438	0.100
1.800	-41.191	0.100
1.900	-28.489	0.100
2.000	-32.011	0.100
2.100	-37.282	0.100
2.200	-32.020	0.100
2.300	-31.336	0.100
2.400	-31.928	0.100
2.500	-33.390	0.100
2.600	-37.689	0.100
2.700	-35.836	0.100
2.800	-31.777	0.100
2.900	-32.888	0.100
3.000	-32.734	0.100
3.100	-29.423	0.100
3.200	-33.925	0.100
3.300	-40.948	0.100
3.400	-33.441	0.100
3.500	-34.230	0.100
3.600	-29.325	0.100
3.700	-34.720	0.100
3.800	-36.978	0.100
3.900	-32.020	0.100
4.000	-25.667	0.100
4.100	-30.554	0.100
4.200	-29.608	0.100
4.300	-29.913	0.100
4.400	-41.603	0.100
4.500	-26.981	0.100
4.600	-36.626	0.100
4.700	-33.918	0.100
4.800	-31.300	0.100
4.900	-36.972	0.100
5.000	-36.082	0.100
5.100	-31.195	0.100
5.200	-39.034	0.100
5.300	-31.333	0.100
5.400	-38.678	0.100
5.500	-28.541	0.100
5.600	-20.991	0.100
5.700	-29.365	0.100
5.800	-36.085	0.100
5.900	-31.152	0.100
6.000	-33.617	0.100
6.100	-33.540	0.100
6.200	-29.345	0.100
6.300	-33.394	0.100
6.400	-33.543	0.100
6.500	-35.271	0.100
6.600	-32.501	0.100
6.700	-28.170	0.100
6.800	-25.012	0.100
6.900	-24.646	0.100
7.000	-30.247	0.100
7.100	-30.320	0.100
7.200	-23.395	0.100
7.300	-31.728	0.100
7.400	-35.479	0.100
7.500	-32.157	0.100
7.600	-24.048	0.100
7.700	-23.410	0.100
7.800	-23.208	0.100
7.900	-44.746	0.100
8.000	-38.096	0.100
8.100	-26.850	0.100
8.200	-31.002	0.100
8.300	-23.626	0.100
8.400	-30.099	0.100
8.500	-36.079	0.100
8.600	-32.281	0.100
8.700	-38.465	0.100
8.800	-27.827	0.100
8.900	-31.203	0.100
9.000	-30.749	0.100
9.100	-29.183	0.100
9.200	-32.745	0.100
9.300	-35.007	0.100
9.400	-26.555	0.100
9.500	-26.305	0.100
9.600	-30.531	0.100
9.700	-27.456	0.100
9.800	-33.885	0.100
9.900	-34.842	0.100
10.000	-27.988	0.100
10.100	-28.608	0.100
10.200	-28.429	0.100
10.300	-34.465	0.100
10.400	-28.887	0.100
10.500	-33.984	0.100
10.600	-28.943	0.100
10.700	-30.443	0.100
10.800	-27.262	0.100
10.900	-30.536	0.100
11.000	-35.213	0.100
11.100	-31.013	0.100
11.200	-28.962	0.100
11.300	-24.475	0.100
11.400	-29.390	0.100
11.500	-17.674	0.100
11.600	-36.298	0.100
11.700	-36.202	0.100
11.800	-28.831	0.100
11.900	-34.768	0.100
12.000	-30.954	0.100
12.100	-26.506	0.100
12.200	-37.568	0.100
12.300	-32.888	0.100
12.400	-29.345	0.100
12.500	-31.928	0.100
12.600	-35.980	0.100
12.700	-29.829	0.100
12.800	-29.798	0.100
12.900	-33.069	0.100
13.000	-33.454	0.100
13.100	-40.694	0.100
13.200	-27.890	0.100
13.300	-29.697	0.100
13.400	-28.079	0.100
13.500	-35.034	0.100
13.600	-41.985	0.100
13.700	-24.565	0.100
13.800	-29.207	0.100
13.900	-32.834	0.100
14.000	-25.465	0.100
14.100	-29.604	0.100
14.200	-28.701	0.100
14.300	-37.770	0.100
14.400	-32.377	0.100
14.500	-31.319	0.100
14.600	-35.105	0.100
14.700	-29.878	0.100
14.800	-19.846	0.100
14.900	-27.900	0.100
15.000	-41.829	0.100
15.100	-34.417	0.100
15.200	-34.952	0.100
15.300	-31.376	0.100
15.400	-20.777	0.100
15.500	-24.868	0.100
15.600	-29.304	0.100
15.700	-36.890	0.100
15.800	-30.658	0.100
15.900	-31.090	0.100
16.000	-32.051	0.100
16.100	-26.320	0.100
16.200	-32.303	0.100
16.300	-26.887	0.100
16.400	-27.312	0.100
16.500	-32.904	0.100
16.600	-32.195	0.100
16.700	-26.786	0.100
16.800	-32.331	0.100
16.900	-34.547	0.100
17.000	-29.130	0.100
17.100	-21.895	0.100
17.200	-27.868	0.100
17.300	-25.151	0.100
17.400	-28.331	0.100
17.500	-31.534	0.100
17.600	-34.363	0.100
17.700	-34.882	0.100
17.800	-31.712	0.100
17.900	-29.060	0.100
18.000	-31.304	0.100
18.100	-22.231	0.100
18.200	-19.420	0.100
18.300	-19.412	0.100
18.400	-32.741	0.100
18.500	-33.409	0.100
18.600	-40.669	0.100
18.700	-26.138	0.100
18.800	-25.549	0.100
18.900	-27.732	0.100
19.000	-25.544	0.100
19.100	-26.027	0.100
19.200	-27.681	0.100
19.300	-22.685	0.100
19.400	-29.907	0.100
19.500	-20.245	0.100
19.600	-28.969	0.100
19.700	-33.788	0.100
19.800	-30.651	0.100
19.900	-31.629	0.100
20.000	-27.814	0.100
20.100	-30.825	0.100
20.200	-28.199	0.100
20.300	-27.813	0.100
20.400	-21.839	0.100
20.500	-27.725	0.100
20.600	-27.958	0.100
20.700	-34.955	0.100
20.800	-25.875	0.100
20.900	-33.280	0.100
21.000	-29.288	0.100
21.100	-21.425	0.100
21.200	-31.199	0.100
21.300	-29.631	0.100
21.400	-29.568	0.100
21.500	-27.606	0.100
21.600	-28.446	0.100
21.700	-31.492	0.100
21.800	-26.378	0.100
21.900	-40.352	0.100
22.000	-31.548	0.100
22.100	-28.293	0.100
22.200	-35.167	0.100
22.300	-23.242	0.100
22.400	-28.445	0.100
22.500	-32.715	0.100
22.600	-28.576	0.100
22.700	-36.296	0.100
22.800	-30.156	0.100
22.900	-31.197	0.100
23.000	-27.988	0.100
23.100	-32.235	0.100
23.200	-39.340	0.100
23.300	-32.101	0.100
23.400	-34.110	0.100
23.500	-26.495	0.100
23.600	-16.387	0.100
23.700	-23.264	0.100
23.800	-34.609	0.100
23.900	-24.646	0.100
24.000	-33.067	0.100
24.100	-28.026	0.100
24.200	-29.149	0.100
24.300	-32.253	0.100
24.400	-30.142	0.100
24.500	-27.491	0.100
24.600	-19.398	0.100
24.700	-29.560	0.100
24.800	-26.648	0.100
24.900	-27.731	0.100
25.000	-26.007	0.100
25.100	-31.586	0.100
25.200	-35.114	0.100
25.300	-28.046	0.100
25.400	-35.972	0.100
25.500	-34.325	0.100
25.600	-20.153	0.100
25.700	-26.467	0.100
25.800	-22.800	0.100
25.900	-27.791	0.100
26.000	-23.899	0.100
26.100	-28.913	0.100
26.200	-40.193	0.100
26.300	-32.051	0.100
26.400	-36.394	0.100
26.500	-35.320	0.100
26.600	-24.878	0.100
26.700	-23.755	0.100
26.800	-30.861	0.100
26.900	-30.574	0.100
27.000	-38.611	0.100
27.100	-23.989	0.100
27.200	-28.087	0.100
27.300	-28.257	0.100
27.400	-29.121	0.100
27.500	-31.570	0.100
27.600	-35.175	0.100
27.700	-33.018	0.100
27.800	-22.779	0.100
27.900	-23.864	0.100
28.000	-25.990	0.100
28.100	-31.057	0.100
28.200	-27.170	0.100
28.300	-32.986	0.100
28.400	-27.218	0.100
28.500	-27.570	0.100
28.600	-27.165	0.100
28.700	-38.628	0.100
28.800	-27.145	0.100
28.900	-28.835	0.100
29.000	-27.706	0.100
29.100	-22.733	0.100
29.200	-24.631	0.100
29.300	-29.516	0.100
29.400	-28.367	0.100
29.500	-24.613	0.100
29.600	-29.770	0.100
29.700	-24.455	0.100
29.800	-30.835	0.100
29.900	-34.856	0.100
30.000	-24.863	0.100
30.100	-20.717	0.100
30.200	-14.191	0.100
30.300	-14.424	0.100
30.400	-28.650	0.100
30.500	-18.836	0.100
30.600	-18.705	0.100
30.700	-29.316	0.100
30.800	-6.445	0.100
30.900	-6.599	0.100
31.000	-11.773	0.100
31.100	-7.115	0.100
31.200	-1.161	0.100
31.300	-2.666	0.100
31.400	1.276	0.100
31.500	4.619	0.100
31.600	-0.292	0.100
31.700	3.036	0.100
31.800	0.317	0.100
31.900	-1.310	0.100
32.000	4.361	0.100
32.100	0.990	0.100
32.200	8.715	0.100
32.300	2.754	0.100
32.400	3.179	0.100
32.500	4.313	0.100
32.600	2.269	0.100
32.700	11.968	0.100
32.800	16.504	0.100
32.900	8.775	0.100
33.000	-0.796	0.100
33.100	1.306	0.100
33.200	2.210	0.100
33.300	5.713	0.100
33.400	9.781	0.100
33.500	6.586	0.100
33.600	0.420	0.100
33.700	8.249	0.100
33.800	6.226	0.100
33.900	4.607	0.100
34.000	0.770	0.100
34.100	-2.282	0.100
34.200	9.062	0.100
34.300	6.812	0.100
34.400	0.145	0.100
34.500	5.723	0.100
34.600	1.706	0.100
34.700	-3.426	0.100
34.800	2.463	0.100
34.900	10.013	0.100
35.000	19.289	0.100
35.100	2.579	0.100
35.200	6.186	0.100
35.300	11.764	0.100
35.400	11.353	0.100
35.500	7.318	0.100
35.600	0.395	0.100
35.700	3.687	0.100
35.800	-0.642	0.100
35.900	3.461	0.100
36.000	5.686	0.100
36.100	1.201	0.100
36.200	-7.848	0.100
36.300	6.940	0.100
36.400	2.284	0.100
36.500	5.208	0.100
36.600	8.393	0.100
36.700	-2.797	0.100
36.800	-3.129	0.100
36.900	-2.454	0.100
37.000	3.227	0.100
37.100	13.074	0.100
37.200	7.979	0.100
37.300	-10.476	0.100
37.400	-2.926	0.100
37.500	7.857	0.100
37.600	0.572	0.100
37.700	8.238	0.100
37.800	13.765	0.100
37.900	5.618	0.100
38.000	9.906	0.100
38.100	14.601	0.100
38.200	-4.230	0.100
38.300	13.195	0.100
38.400	1.994	0.100
38.500	-7.638	0.100
38.600	5.522	0.100
38.700	6.729	0.100
38.800	-2.163	0.100
38.900	6.347	0.100
39.000	1.554	0.100
39.100	7.082	0.100
39.200	3.927	0.100
39.300	3.959	0.100
39.400	2.578	0.100
39.500	-1.900	0.100
39.600	8.130	0.100
39.700	3.884	0.100
39.800	7.606	0.100
39.900	13.694	0.100
40.000	-0.039	0.100
40.100	1.306	0.100
40.200	0.115	0.100
40.300	10.258	0.100
40.400	12.391	0.100
40.500	7.749	0.100
40.600	4.936	0.100
40.700	0.334	0.100
40.800	4.502	0.100
40.900	12.710	0.100
41.000	10.933	0.100
41.100	6.465	0.100
41.200	-6.744	0.100
41.300	6.781	0.100
41.400	9.807	0.100
41.500	0.176	0.100
41.600	-8.573	0.100
41.700	18.574	0.100
41.800	0.001	0.100
41.900	7.960	0.100
42.000	5.820	0.100
42.100	9.569	0.100
42.200	6.795	0.100
42.300	2.900	0.100
42.400	6.975	0.100
42.500	11.393	0.100
42.600	10.523	0.100
42.700	-3.500	0.100
42.800	16.345	0.100
42.900	-1.881	0.100
43.000	13.605	0.100
43.100	13.898	0.100
43.200	12.793	0.100
43.300	7.226	0.100
43.400	17.221	0.100
43.500	5.832	0.100
43.600	16.900	0.100
43.700	6.775	0.100
43.800	10.833	0.100
43.900	13.148	0.100
44.000	11.552	0.100
44.100	10.766	0.100
44.200	7.167	0.100
44.300	9.989	0.100
44.400	17.063	0.100
44.500	12.865	0.100
44.600	15.652	0.100
44.700	14.189	0.100
44.800	10.227	0.100
44.900	10.259	0.100
45.000	12.217	0.100
45.100	12.171	0.100
45.200	15.644	0.100
45.300	10.259	0.100
45.400	13.915	0.100
45.500	6.626	0.100
45.600	8.902	0.100
45.700	12.163	0.100
45.800	9.054	0.100
45.900	16.483	0.100
46.000	11.013	0.100
46.100	19.106	0.100
46.200	18.850	0.100
46.300	21.423	0.100
46.400	22.838	0.100
46.500	24.628	0.100
46.600	18.774	0.100
46.700	19.432	0.100
46.800	17.750	0.100
46.900	21.011	0.100
47.000	30.716	0.100
47.100	15.150	0.100
47.200	25.063	0.100
47.300	34.436	0.100
47.400	32.560	0.100
47.500	27.291	0.100
47.600	25.351	0.100
47.700	21.638	0.100
47.800	15.915	0.100
47.900	32.543	0.100
48.000	21.626	0.100
48.100	26.300	0.100
48.200	22.621	0.100
48.300	30.352	0.100
48.400	23.692	0.100
48.500	35.848	0.100
48.600	30.572	0.100
48.700	31.475	0.100
48.800	28.270	0.100
48.900	21.673	0.100
49.000	28.476	0.100
49.100	21.499	0.100
49.200	30.072	0.100
49.300	29.426	0.100
49.400	34.855	0.100
49.500	34.046	0.100
49.600	38.423	0.100
49.700	21.782	0.100
49.800	30.152	0.100
49.900	19.897	0.100
50.000	30.858	0.100
50.100	34.381	0.100
50.200	38.981	0.100
50.300	39.534	0.100
50.400	42.912	0.100
50.500	24.731	0.100
50.600	37.804	0.100
50.700	44.411	0.100
50.800	33.738	0.100
50.900	35.924	0.100
51.000	34.877	0.100
51.100	24.146	0.100
51.200	24.638	0.100
51.300	36.708	0.100
51.400	38.401	0.100
51.500	40.145	0.101
51.600	32.735	0.101
51.700	40.089	0.101
51.800	39.360	0.101
51.900	40.000	0.101
52.000	30.877	0.101
52.100	47.017	0.101
52.200	42.103	0.101
52.300	34.934	0.101
52.400	41.015	0.101
52.500	44.628	0.101
52.600	44.751	0.101
52.700	32.044	0.101
52.800	33.281	0.101
52.900	39.730	0.101
53.000	39.629	0.101
53.100	43.519	0.101
53.200	44.570	0.101
53.300	49.007	0.101
53.400	40.991	0.101
53.500	40.676	0.101
53.600	42.244	0.101
53.700	41.518	0.101
53.800	45.729	0.101
53.900	39.642	0.101
54.000	41.113	0.101
54.100	32.933	0.101
54.200	41.522	0.101
54.300	41.849	0.101
54.400	38.037	0.101
54.500	40.416	0.101
54.600	42.611	0.101
54.700	37.321	0.101
54.800	48.641	0.101
54.900	42.027	0.101
55.000	39.493	0.101
55.100	38.538	0.101
55.200	44.485	0.101
55.300	39.014	0.101
55.400	37.268	0.101
55.500	41.315	0.101
55.600	45.847	0.101
55.700	47.572	0.101
55.800	50.709	0.101
55.900	37.005	0.101
56.000	35.058	0.101
56.100	55.213	0.101
56.200	48.247	0.101
56.300	43.636	0.101
56.400	47.679	0.101
56.500	37.773	0.101
56.600	37.865	0.101
56.700	44.497	0.101
56.800	41.796	0.101
56.900	58.139	0.101
57.000	46.285	0.101
57.100	45.161	0.101
57.200	42.870	0.101
57.300	41.647	0.101
57.400	49.281	0.101
57.500	51.367	0.101
57.600	56.848	0.101
57.700	41.419	0.101
57.800	45.269	0.101
57.900	48.115	0.101
58.000	49.163	0.101
58.100	37.223	0.101
58.200	46.338	0.101
58.300	48.920	0.101
58.400	43.567	0.101
58.500	48.940	0.101
58.600	40.215	0.101
58.700	42.686	0.101
58.800	50.974	0.101
58.900	48.316	0.101
59.000	57.427	0.101
59.100	49.935	0.101
59.200	56.224	0.101
59.300	43.243	0.101
59.400	47.149	0.101
59.500	39.462	0.101
59.600	40.170	0.101
59.700	49.098	0.101
59.800	45.490	0.101
59.900	51.688	0.101
60.000	54.561	0.101
60.100	54.449	0.101
60.200	53.010	0.101
60.300	46.526	0.101
60.400	50.696	0.101
60.500	43.961	0.101
60.600	49.825	0.101
60.700	48.099	0.101
60.800	53.459	0.101
60.900	49.894	0.101
61.000	51.884	0.101
61.100	52.028	0.101
61.200	50.776	0.101
61.300	51.284	0.101
61.400	60.349	0.101
61.500	53.659	0.101
61.600	42.833	0.101
61.700	45.005	0.101
61.800	52.793	0.101
61.900	50.822	0.101
62.000	51.404	0.101
62.100	53.233	0.101
62.200	52.459	0.101
62.300	52.146	0.101
62.400	41.852	0.101
62.500	49.536	0.101
62.600	54.243	0.101
62.700	55.507	0.101
62.800	53.799	0.101
62.900	51.616	0.101
63.000	52.367	0.101
63.100	50.741	0.101
63.200	56.250	0.101
63.300	54.067	0.101
63.400	50.990	0.101
63.500	46.437	0.101
63.600	48.234	0.101
63.700	51.289	0.101
63.800	54.096	0.101
63.900	45.567	0.101
64.000	58.332	0.101
64.100	52.828	0.101
64.200	43.330	0.101
64.300	50.419	0.101
64.400	56.413	0.101
64.500	54.120	0.101
64.600	57.335	0.101
64.700	46.724	0.101
64.800	43.489	0.101
64.900	57.219	0.101
65.000	56.986	0.101
65.100	59.363	0.101
65.200	57.197	0.101
65.300	55.179	0.101
65.400	55.908	0.101
65.500	57.037	0.101
65.600	46.823	0.101
65.700	60.010	0.101
65.800	55.810	0.101
65.900	50.404	0.101
66.000	49.563	0.101
66.100	46.186	0.101
66.200	52.243	0.101
66.300	52.239	0.101
66.400	46.390	0.101
66.500	51.825	0.101
66.600	47.779	0.101
66.700	54.334	0.101
66.800	58.919	0.101
66.900	56.637	0.101
67.000	46.592	0.101
67.100	50.392	0.101
67.200	49.655	0.101
67.300	52.064	0.101
67.400	43.725	0.101
67.500	59.623	0.101
67.600	49.358	0.101
67.700	53.718	0.101
67.800	55.422	0.101
67.900	49.755	0.101
68.000	52.154	0.101
68.100	53.216	0.101
68.200	54.464	0.101
68.300	62.855	0.101
68.400	56.684	0.101
68.500	55.275	0.101
68.600	64.061	0.101
68.700	53.321	0.101
68.800	59.891	0.101
68.900	55.321	0.101
69.000	45.934	0.101
69.100	53.020	0.101
69.200	47.163	0.101
69.300	51.517	0.101
69.400	46.821	0.101
69.500	52.667	0.101
69.600	51.829	0.101
69.700	56.526	0.101
69.800	58.146	0.101
69.900	49.006	0.101
70.000	59.929	0.101
70.100	46.469	0.101
70.200	48.107	0.101
70.300	56.283	0.101
70.400	53.047	0.100
70.500	58.671	0.101
70.600	50.197	0.101
70.700	54.125	0.101
70.800	55.779	0.101
70.900	65.551	0.100
71.000	56.985	0.101
71.100	52.302	0.101
71.200	52.820	0.101
71.300	53.060	0.101
71.400	52.646	0.100
71.500	50.532	0.100
71.600	42.759	0.100
71.700	47.137	0.100
71.800	45.955	0.100
71.900	46.752	0.100
72.000	47.963	0.100
72.100	51.221	0.100
72.200	55.945	0.100
72.300	54.317	0.100
72.400	59.189	0.100
72.500	55.941	0.100
72.600	44.203	0.100
72.700	46.694	0.100
72.800	58.196	0.100
72.900	51.085	0.100
73.000	50.570	0.100
73.100	57.808	0.100
73.200	52.497	0.100
73.300	49.612	0.100
73.400	45.713	0.100
73.500	52.598	0.100
73.600	59.470	0.100
73.700	51.337	0.100
73.800	55.696	0.100
73.900	56.434	0.100
74.000	52.685	0.100
74.100	45.096	0.100
74.200	60.795	0.100
74.300	59.034	0.100
74.400	42.954	0.100
74.500	46.780	0.100
74.600	54.352	0.100
74.700	46.966	0.100
74.800	59.889	0.100
74.900	57.107	0.100
75.000	50.589	0.100
75.100	54.361	0.100
75.200	60.628	0.100
75.300	52.495	0.100
75.400	45.364	0.100
75.500	44.783	0.100
75.600	52.913	0.100
75.700	49.313	0.100
75.800	43.732	0.100
75.900	53.913	0.100
76.000	50.046	0.100
76.100	44.409	0.100
76.200	52.493	0.100
76.300	59.594	0.100
76.400	50.984	0.100
76.500	52.298	0.100
76.600	57.262	0.100
76.700	51.876	0.100
76.800	47.526	0.100
76.900	61.178	0.100
77.000	53.679	0.100
77.100	43.346	0.100
77.200	48.902	0.100
77.300	60.478	0.100
77.400	57.046	0.100
77.500	44.631	0.100
77.600	50.657	0.100
77.700	52.254	0.100
77.800	43.445	0.100
77.900	53.821	0.100
78.000	47.397	0.100
78.100	55.538	0.100
78.200	50.231	0.100
78.300	62.993	0.100
78.400	61.446	0.100
78.500	47.061	0.100
78.600	51.335	0.100
78.700	47.857	0.100
78.800	52.269	0.100
78.900	53.109	0.100
79.000	58.600	0.100
79.100	55.892	0.100
79.200	53.371	0.100
79.300	47.578	0.100
79.400	48.086	0.100
79.500	55.399	0.100
79.600	45.348	0.100
79.700	50.893	0.100
79.800	52.793	0.100
79.900	46.453	0.100
80.000	46.262	0.100
80.100	59.703	0.100
80.200	57.227	0.100
80.300	54.430	0.100
80.400	57.983	0.100
80.500	57.043	0.100
80.600	48.395	0.100
80.700	44.062	0.100
80.800	48.172	0.100
80.900	50.819	0.100
81.000	55.488	0.100
81.100	52.998	0.100
81.200	52.447	0.100
81.300	50.064	0.100
81.400	53.757	0.100
81.500	57.532	0.100
81.600	50.364	0.100
81.700	58.056	0.100
81.800	43.428	0.100
81.900	51.953	0.100
82.000	58.265	0.100
82.100	50.018	0.100
82.200	49.542	0.100
82.300	47.433	0.100
82.400	61.107	0.100
82.500	58.129	0.100
82.600	46.482	0.100
82.700	50.892	0.100
82.800	45.437	0.100
82.900	50.590	0.100
83.000	51.456	0.100
83.100	46.988	0.100
83.200	53.757	0.100
83.300	43.295	0.100
83.400	50.806	0.100
83.500	51.521	0.100
83.600	46.296	0.100
83.700	48.327	0.100
83.800	55.097	0.100
83.900	53.471	0.100
84.000	55.094	0.100
84.100	53.281	0.100
84.200	53.248	0.100
84.300	44.997	0.100
84.400	52.760	0.100
84.500	58.167	0.100
84.600	51.505	0.100
84.700	52.815	0.100
84.800	44.458	0.100
84.900	49.510	0.100
85.000	46.021	0.100
85.100	49.992	0.100
85.200	45.156	0.100
85.300	53.664	0.100
85.400	58.890	0.100
85.500	50.240	0.100
85.600	49.901	0.100
85.700	46.992	0.100
85.800	56.630	0.100
85.900	52.074	0.100
86.000	52.897	0.100
86.100	45.950	0.100
86.200	56.260	0.100
86.300	53.670	0.100
86.400	57.518	0.100
86.500	45.617	0.100
86.600	45.364	0.100
86.700	53.153	0.100
86.800	55.188	0.100
86.900	41.420	0.100
87.000	57.291	0.100
87.100	49.500	0.100
87.200	56.785	0.100
87.300	57.256	0.100
87.400	55.811	0.100
87.500	53.118	0.100
87.600	33.740	0.100
87.700	53.521	0.100
87.800	50.467	0.100
87.900	41.918	0.100
88.000	49.468	0.100
88.100	49.888	0.100
88.200	53.657	0.100
88.300	45.793	0.100
88.400	43.550	0.100
88.500	50.738	0.100
88.600	61.765	0.100
88.700	59.153	0.100
88.800	49.401	0.100
88.900	52.301	0.100
89.000	49.923	0.100
89.100	53.407	0.100
89.200	43.964	0.100
89.300	50.264	0.100
89.400	61.053	0.100
89.500	50.119	0.100
89.600	59.495	0.100
89.700	55.263	0.100
89.800	51.629	0.100
89.900	49.991	0.100
90.000	45.689	0.100
90.100	35.844	0.100
90.200	42.726	0.100
90.300	56.269	0.100
90.400	36.037	0.100
90.500	34.370	0.100
90.600	38.487	0.100
90.700	36.891	0.100
90.800	36.918	0.100
90.900	28.063	0.100
91.000	27.263	0.100
91.100	26.086	0.100
91.200	23.935	0.100
91.300	23.985	0.100
91.400	21.846	0.100
91.500	28.019	0.100
91.600	21.332	0.100
91.700	16.840	0.100
91.800	8.794	0.100
91.900	8.908	0.100
92.000	17.056	0.100
92.100	22.319	0.100
92.200	8.179	0.100
92.300	7.280	0.100
92.400	2.917	0.100
92.500	2.213	0.100
92.600	19.197	0.100
92.700	7.157	0.100
92.800	5.609	0.100
92.900	11.162	0.100
93.000	4.597	0.100
93.100	7.647	0.100
93.200	4.412	0.100
93.300	11.130	0.100
93.400	0.431	0.100
93.500	8.077	0.100
93.600	3.492	0.100
93.700	1.941	0.100
93.800	-1.429	0.100
93.900	-1.421	0.100
94.000	-0.883	0.100
94.100	4.792	0.100
94.200	-6.878	0.100
94.300	-2.602	0.100
94.400	-3.619	0.100
94.500	4.008	0.100
94.600	-9.815	0.100
