time /s	I /nA	E /V
0.100	-23.705	0.100
0.200	-12.114	0.100
0.300	-17.404	0.100
0.400	-28.768	0.100
0.500	-34.003	0.100
0.600	-31.575	0.100
0.700	-29.790	0.100
0.800	-29.656	0.100
0.900	-29.790	0.100
1.000	-21.790	0.100
1.100	-26.320	0.100
1.200	-27.006	0.100
1.300	-26.403	0.100
1.400	-24.560	0.100
1.500	-14.137	0.100
1.600	-23.422	0.100
1.700	-20.528	0.100
1.800	-23.719	0.100
1.900	-20.157	0.100
2.000	-32.845	0.100
2.100	-33.473	0.100
2.200	-27.603	0.100
2.300	-26.130	0.100
2.400	-28.531	0.100
2.500	-24.820	0.100
2.600	-21.723	0.100
2.700	-29.064	0.100
2.800	-19.100	0.100
2.900	-29.823	0.100
3.000	-26.014	0.100
3.100	-23.537	0.100
3.200	-24.271	0.100
3.300	-25.233	0.100
3.400	-24.812	0.100
3.500	-29.718	0.100
3.600	-24.515	0.100
3.700	-18.972	0.100
3.800	-21.399	0.100
3.900	-23.797	0.100
4.000	-23.254	0.100
4.100	-22.571	0.100
4.200	-26.515	0.100
4.300	-25.543	0.100
4.400	-29.105	0.100
4.500	-22.027	0.100
4.600	-24.376	0.100
4.700	-24.787	0.100
4.800	-22.204	0.100
4.900	-26.458	0.100
5.000	-25.746	0.100
5.100	-21.199	0.100
5.200	-27.961	0.100
5.300	-30.318	0.100
5.400	-29.655	0.100
5.500	-32.778	0.100
5.600	-33.960	0.100
5.700	-22.140	0.100
5.800	-17.306	0.100
5.900	-21.487	0.100
6.000	-17.390	0.100
6.100	-23.892	0.100
6.200	-24.373	0.100
6.300	-26.908	0.100
6.400	-28.471	0.100
6.500	-20.161	0.100
6.600	-26.461	0.100
6.700	-33.621	0.100
6.800	-23.855	0.100
6.900	-18.209	0.100
7.000	-25.657	0.100
7.100	-25.971	0.100
7.200	-27.676	0.100
7.300	-29.122	0.100
7.400	-16.513	0.100
7.500	-26.207	0.100
7.600	-23.445	0.100
7.700	-26.069	0.100
7.800	-27.302	0.100
7.900	-26.618	0.100
8.000	-32.799	0.100
8.100	-18.650	0.100
8.200	-15.365	0.100
8.300	-25.892	0.100
8.400	-23.623	0.100
8.500	-22.299	0.100
8.600	-30.270	0.100
8.700	-29.353	0.100
8.800	-30.647	0.100
8.900	-22.879	0.100
9.000	-25.816	0.100
9.100	-27.313	0.100
9.200	-26.801	0.100
9.300	-28.810	0.100
9.400	-20.665	0.100
9.500	-18.984	0.100
9.600	-22.725	0.100
9.700	-32.015	0.100
9.800	-24.431	0.100
9.900	-25.137	0.100
10.000	-29.635	0.100
10.100	-21.552	0.100
10.200	-33.777	0.100
10.300	-39.207	0.100
10.400	-25.995	0.100
10.500	-18.835	0.100
10.600	-18.772	0.100
10.700	-17.548	0.100
10.800	-18.119	0.100
10.900	-35.363	0.100
11.000	-26.966	0.100
11.100	-26.667	0.100
11.200	-31.355	0.100
11.300	-19.193	0.100
11.400	-27.205	0.100
11.500	-28.004	0.100
11.600	-32.037	0.100
11.700	-23.634	0.100
11.800	-28.284	0.100
11.900	-18.205	0.100
12.000	-34.881	0.100
12.100	-20.515	0.100
12.200	-31.523	0.100
12.300	-36.294	0.100
12.400	-28.005	0.100
12.500	-22.565	0.100
12.600	-24.273	0.100
12.700	-20.270	0.100
12.800	-24.825	0.100
12.900	-23.170	0.100
13.000	-32.207	0.100
13.100	-21.919	0.100
13.200	-35.521	0.100
13.300	-25.449	0.100
13.400	-34.716	0.100
13.500	-26.082	0.100
13.600	-28.994	0.100
13.700	-27.049	0.100
13.800	-22.839	0.100
13.900	-24.825	0.100
14.000	-28.779	0.100
14.100	-23.498	0.100
14.200	-36.363	0.100
14.300	-23.209	0.100
14.400	-23.889	0.100
14.500	-20.972	0.100
14.600	-21.822	0.100
14.700	-22.656	0.100
14.800	-29.739	0.100
14.900	-24.088	0.100
15.000	-20.471	0.100
15.100	-26.977	0.100
15.200	-31.383	0.100
15.300	-31.179	0.100
15.400	-23.915	0.100
15.500	-15.977	0.100
15.600	-19.027	0.100
15.700	-20.789	0.100
15.800	-22.483	0.100
15.900	-22.029	0.100
16.000	-22.754	0.100
16.100	-24.677	0.100
16.200	-30.532	0.100
16.300	-26.757	0.100
16.400	-28.402	0.100
16.500	-26.034	0.100
16.600	-24.626	0.100
16.700	-24.809	0.100
16.800	-25.284	0.100
16.900	-31.406	0.100
17.000	-20.444	0.100
17.100	-21.199	0.100
17.200	-22.121	0.100
17.300	-26.377	0.100
17.400	-20.930	0.100
17.500	-28.459	0.100
17.600	-31.157	0.100
17.700	-19.385	0.100
17.800	-29.409	0.100
17.900	-18.955	0.100
18.000	-29.159	0.100
18.100	-25.218	0.100
18.200	-18.730	0.100
18.300	-21.777	0.100
18.400	-24.241	0.100
18.500	-21.624	0.100
18.600	-23.425	0.100
18.700	-23.742	0.100
18.800	-26.890	0.100
18.900	-22.406	0.100
19.000	-18.049	0.100
19.100	-27.082	0.100
19.200	-28.315	0.100
19.300	-25.323	0.100
19.400	-29.748	0.100
19.500	-30.961	0.100
19.600	-25.744	0.100
19.700	-27.662	0.100
19.800	-20.167	0.100
19.900	-24.864	0.100
20.000	-17.420	0.100
20.100	-20.374	0.100
20.200	-41.085	0.100
20.300	-25.844	0.100
20.400	-30.846	0.100
20.500	-16.810	0.100
20.600	-22.838	0.100
20.700	-34.262	0.100
20.800	-28.609	0.100
20.900	-32.055	0.100
21.000	-27.144	0.100
21.100	-24.121	0.100
21.200	-23.758	0.100
21.300	-14.371	0.100
21.400	-23.038	0.100
21.500	-27.796	0.100
21.600	-21.991	0.100
21.700	-24.915	0.100
21.800	-16.494	0.100
21.900	-24.047	0.100
22.000	-25.213	0.100
22.100	-31.954	0.100
22.200	-27.447	0.100
22.300	-28.913	0.100
22.400	-13.453	0.100
22.500	-19.536	0.100
22.600	-29.196	0.100
22.700	-27.429	0.100
22.800	-31.163	0.100
22.900	-22.217	0.100
23.000	-32.868	0.100
23.100	-25.327	0.100
23.200	-22.678	0.100
23.300	-19.827	0.100
23.400	-21.150	0.100
23.500	-27.459	0.100
23.600	-28.139	0.100
23.700	-26.038	0.100
23.800	-23.063	0.100
23.900	-26.122	0.100
24.000	-18.861	0.100
24.100	-35.275	0.100
24.200	-19.499	0.100
24.300	-17.536	0.100
24.400	-28.710	0.100
24.500	-21.856	0.100
24.600	-24.160	0.100
24.700	-29.369	0.100
24.800	-23.456	0.100
24.900	-30.630	0.100
25.000	-30.131	0.100
25.100	-30.175	0.100
25.200	-25.658	0.100
25.300	-18.941	0.100
25.400	-23.195	0.100
25.500	-28.053	0.100
25.600	-13.994	0.100
25.700	-22.876	0.100
25.800	-31.841	0.100
25.900	-14.085	0.100
26.000	-21.322	0.100
26.100	-26.528	0.100
26.200	-20.473	0.100
26.300	-18.757	0.100
26.400	-15.110	0.100
26.500	-30.117	0.100
26.600	-15.166	0.100
26.700	-11.411	0.100
26.800	-33.350	0.100
26.900	-18.565	0.100
27.000	-29.084	0.100
27.100	-35.096	0.100
27.200	-28.048	0.100
27.300	-27.487	0.100
27.400	-23.459	0.100
27.500	-24.531	0.100
27.600	-26.394	0.100
27.700	-24.970	0.100
27.800	-26.446	0.100
27.900	-16.608	0.100
28.000	-23.429	0.100
28.100	-22.406	0.100
28.200	-23.950	0.100
28.300	-24.969	0.100
28.400	-28.456	0.100
28.500	-24.308	0.100
28.600	-28.055	0.100
28.700	-12.420	0.100
28.800	-30.441	0.100
28.900	-25.259	0.100
29.000	-18.557	0.100
29.100	-25.734	0.100
29.200	-25.514	0.100
29.300	-33.474	0.100
29.400	-28.213	0.100
29.500	-26.731	0.100
29.600	-25.328	0.100
29.700	-23.801	0.100
29.800	-23.018	0.100
29.900	-23.471	0.100
30.000	-24.127	0.100
30.100	-22.528	0.100
30.200	-28.789	0.100
30.300	-23.302	0.100
30.400	-24.694	0.100
30.500	-10.558	0.100
30.600	-18.588	0.100
30.700	-17.127	0.100
30.800	-16.399	0.100
30.900	-15.591	0.100
31.000	-18.344	0.100
31.100	-18.851	0.100
31.200	-11.796	0.100
31.300	-11.269	0.100
31.400	-6.294	0.100
31.500	-2.724	0.100
31.600	-8.086	0.100
31.700	-11.173	0.100
31.800	-5.616	0.100
31.900	5.358	0.100
32.000	-9.384	0.100
32.100	-15.026	0.100
32.200	1.665	0.100
32.300	-1.567	0.100
32.400	-7.668	0.100
32.500	-6.589	0.100
32.600	-7.310	0.100
32.700	8.997	0.100
32.800	-16.480	0.100
32.900	-5.709	0.100
33.000	-1.619	0.100
33.100	-3.300	0.100
33.200	-0.898	0.100
33.300	-7.014	0.100
33.400	-9.355	0.100
33.500	6.541	0.100
33.600	9.373	0.100
33.700	-5.322	0.100
33.800	1.578	0.100
33.900	0.197	0.100
34.000	-9.844	0.100
34.100	6.431	0.100
34.200	0.740	0.100
34.300	1.555	0.100
34.400	8.424	0.100
34.500	-2.559	0.100
34.600	-3.627	0.100
34.700	-4.772	0.100
34.800	12.078	0.100
34.900	-14.740	0.100
35.000	-0.777	0.100
35.100	12.818	0.100
35.200	3.367	0.100
35.300	8.279	0.100
35.400	9.875	0.100
35.500	-3.472	0.100
35.600	-4.131	0.100
35.700	3.873	0.100
35.800	5.204	0.100
35.900	-7.367	0.100
36.000	-9.367	0.100
36.100	6.765	0.100
36.200	8.467	0.100
36.300	-0.500	0.100
36.400	8.791	0.100
36.500	7.474	0.100
36.600	9.894	0.100
36.700	10.023	0.100
36.800	14.981	0.100
36.900	18.291	0.100
37.000	7.003	0.100
37.100	0.127	0.100
37.200	3.964	0.100
37.300	6.201	0.100
37.400	14.660	0.100
37.500	1.219	0.100
37.600	8.054	0.100
37.700	2.136	0.100
37.800	-0.544	0.100
37.900	17.095	0.100
38.000	11.114	0.100
38.100	13.037	0.100
38.200	15.129	0.100
38.300	14.720	0.100
38.400	9.714	0.100
38.500	13.686	0.100
38.600	18.525	0.100
38.700	12.614	0.100
38.800	11.206	0.100
38.900	11.893	0.100
39.000	2.918	0.100
39.100	17.749	0.100
39.200	21.891	0.100
39.300	20.281	0.100
39.400	10.248	0.100
39.500	21.566	0.100
39.600	19.957	0.100
39.700	18.545	0.100
39.800	24.271	0.100
39.900	27.880	0.100
40.000	20.600	0.100
40.100	14.254	0.100
40.200	9.932	0.100
40.300	20.240	0.100
40.400	17.509	0.100
40.500	29.020	0.100
40.600	30.010	0.100
40.700	25.336	0.100
40.800	29.421	0.100
40.900	21.910	0.100
41.000	21.729	0.100
41.100	22.429	0.100
41.200	16.198	0.100
41.300	18.178	0.100
41.400	23.623	0.100
41.500	27.533	0.100
41.600	32.476	0.100
41.700	29.045	0.100
41.800	29.276	0.100
41.900	26.758	0.100
42.000	20.637	0.100
42.100	23.653	0.100
42.200	24.906	0.100
42.300	21.967	0.100
42.400	37.988	0.100
42.500	40.061	0.100
42.600	29.023	0.100
42.700	40.445	0.100
42.800	23.168	0.100
42.900	40.688	0.100
43.000	34.298	0.100
43.100	37.422	0.100
43.200	41.297	0.100
43.300	34.142	0.100
43.400	33.720	0.100
43.500	44.375	0.100
43.600	41.355	0.100
43.700	43.183	0.100
43.800	34.510	0.100
43.900	31.189	0.100
44.000	34.994	0.100
44.100	29.085	0.100
44.200	41.624	0.100
44.300	43.853	0.100
44.400	25.543	0.100
44.500	29.754	0.100
44.600	30.850	0.100
44.700	35.762	0.100
44.800	30.958	0.100
44.900	40.524	0.100
45.000	44.662	0.100
45.100	38.016	0.100
45.200	37.693	0.100
45.300	33.556	0.100
45.400	31.564	0.100
45.500	33.903	0.100
45.600	36.058	0.100
45.700	39.990	0.100
45.800	45.483	0.100
45.900	41.576	0.100
46.000	46.018	0.100
46.100	39.752	0.100
46.200	36.321	0.100
46.300	40.602	0.100
46.400	32.661	0.100
46.500	40.037	0.100
46.600	48.792	0.100
46.700	33.473	0.100
46.800	39.699	0.100
46.900	47.264	0.100
47.000	47.122	0.100
47.100	34.707	0.100
47.200	39.108	0.100
47.300	58.046	0.100
47.400	43.018	0.100
47.500	35.579	0.100
47.600	45.283	0.100
47.700	49.706	0.100
47.800	40.478	0.100
47.900	38.684	0.100
48.000	37.088	0.100
48.100	32.836	0.100
48.200	35.741	0.100
48.300	52.614	0.100
48.400	47.876	0.100
48.500	41.674	0.100
48.600	29.056	0.100
48.700	47.125	0.100
48.800	48.793	0.100
48.900	42.528	0.100
49.000	47.886	0.100
49.100	46.844	0.100
49.200	37.009	0.100
49.300	38.465	0.100
49.400	38.515	0.100
49.500	48.169	0.100
49.600	47.609	0.100
49.700	42.093	0.100
49.800	41.996	0.100
49.900	41.813	0.100
50.000	34.979	0.100
50.100	36.905	0.100
50.200	42.576	0.100
50.300	36.666	0.100
50.400	46.468	0.100
50.500	44.422	0.100
50.600	50.612	0.100
50.700	47.859	0.100
50.800	44.820	0.100
50.900	42.503	0.100
51.000	49.597	0.100
51.100	42.534	0.100
51.200	39.086	0.100
51.300	45.569	0.100
51.400	40.273	0.100
51.500	40.678	0.100
51.600	41.710	0.100
51.700	39.745	0.100
51.800	42.187	0.100
51.900	44.855	0.100
52.000	44.280	0.100
52.100	47.105	0.100
52.200	52.441	0.100
52.300	47.683	0.100
52.400	42.661	0.100
52.500	35.837	0.100
52.600	37.785	0.100
52.700	47.422	0.100
52.800	50.154	0.100
52.900	41.756	0.100
53.000	45.426	0.100
53.100	46.282	0.100
53.200	37.737	0.100
53.300	47.677	0.100
53.400	51.262	0.100
53.500	40.459	0.100
53.600	41.800	0.100
53.700	38.247	0.100
53.800	34.420	0.100
53.900	42.825	0.100
54.000	44.326	0.100
54.100	42.365	0.100
54.200	41.972	0.100
54.300	36.398	0.100
54.400	32.887	0.100
54.500	48.345	0.100
54.600	53.975	0.100
54.700	51.685	0.100
54.800	44.766	0.100
54.900	48.249	0.100
55.000	41.888	0.100
55.100	41.500	0.100
55.200	32.978	0.100
55.300	40.956	0.100
55.400	49.977	0.100
55.500	44.378	0.100
55.600	46.084	0.100
55.700	43.016	0.100
55.800	50.114	0.100
55.900	42.354	0.100
56.000	51.073	0.100
56.100	39.246	0.100
56.200	39.914	0.100
56.300	40.541	0.100
56.400	44.892	0.100
56.500	59.431	0.100
56.600	48.999	0.100
56.700	40.702	0.100
56.800	49.859	0.100
56.900	39.499	0.100
57.000	44.238	0.100
57.100	42.688	0.100
57.200	35.712	0.100
57.300	35.808	0.100
57.400	50.010	0.100
57.500	32.044	0.100
57.600	44.007	0.100
57.700	49.297	0.100
57.800	48.759	0.100
57.900	43.197	0.100
58.000	37.170	0.100
58.100	45.611	0.100
58.200	50.833	0.100
58.300	45.242	0.100
58.400	50.172	0.100
58.500	54.137	0.100
58.600	45.293	0.100
58.700	42.389	0.100
58.800	51.871	0.100
58.900	38.178	0.100
59.000	43.077	0.100
59.100	53.850	0.100
59.200	47.779	0.100
59.300	35.702	0.100
59.400	43.390	0.100
59.500	38.431	0.100
59.600	43.156	0.100
59.700	46.764	0.100
59.800	36.829	0.100
59.900	35.006	0.100
60.000	41.164	0.100
60.100	42.348	0.100
60.200	42.223	0.100
60.300	40.513	0.100
60.400	44.963	0.100
60.500	52.545	0.100
60.600	50.820	0.100
60.700	44.837	0.100
60.800	36.131	0.100
60.900	38.870	0.100
61.000	46.196	0.100
61.100	40.822	0.100
61.200	49.806	0.100
61.300	39.961	0.100
61.400	49.975	0.100
61.500	45.910	0.100
61.600	36.503	0.100
61.700	36.673	0.100
61.800	37.841	0.100
61.900	43.228	0.100
62.000	44.231	0.100
62.100	48.028	0.100
62.200	45.839	0.100
62.300	40.900	0.100
62.400	41.979	0.100
62.500	48.228	0.100
62.600	50.211	0.100
62.700	42.135	0.100
62.800	45.306	0.100
62.900	47.204	0.100
63.000	56.620	0.100
63.100	46.715	0.100
63.200	44.566	0.100
63.300	45.678	0.100
63.400	51.057	0.100
63.500	40.449	0.100
63.600	54.302	0.100
63.700	42.020	0.100
63.800	47.109	0.100
63.900	45.478	0.100
64.000	42.275	0.100
64.100	44.845	0.100
64.200	56.615	0.100
64.300	47.496	0.100
64.400	47.770	0.100
64.500	44.175	0.100
64.600	46.134	0.100
64.700	43.685	0.100
64.800	51.944	0.100
64.900	35.788	0.100
65.000	49.513	0.100
65.100	41.558	0.100
65.200	39.907	0.100
65.300	52.793	0.100
65.400	45.052	0.100
65.500	51.145	0.100
65.600	43.051	0.100
65.700	47.461	0.100
65.800	55.762	0.100
65.900	42.628	0.100
66.000	42.451	0.100
66.100	54.074	0.100
66.200	48.917	0.100
66.300	42.171	0.100
66.400	43.937	0.100
66.500	44.080	0.100
66.600	45.073	0.100
66.700	50.127	0.100
66.800	42.193	0.100
66.900	45.981	0.100
67.000	45.145	0.100
67.100	48.968	0.100
67.200	55.846	0.100
67.300	39.675	0.100
67.400	53.111	0.100
67.500	51.177	0.100
67.600	50.106	0.100
67.700	50.113	0.100
67.800	50.906	0.100
67.900	40.019	0.100
68.000	53.373	0.100
68.100	50.495	0.100
68.200	47.423	0.100
68.300	53.676	0.100
68.400	45.916	0.100
68.500	42.618	0.100
68.600	47.864	0.100
68.700	53.113	0.100
68.800	46.918	0.100
68.900	46.380	0.100
69.000	47.135	0.100
69.100	49.267	0.100
69.200	41.099	0.100
69.300	52.673	0.100
69.400	47.175	0.100
69.500	41.312	0.100
69.600	42.405	0.100
69.700	54.981	0.100
69.800	46.852	0.100
69.900	38.706	0.100
70.000	38.921	0.100
70.100	44.911	0.100
70.200	46.392	0.100
70.300	52.086	0.100
70.400	51.735	0.100
70.500	32.265	0.100
70.600	41.681	0.100
70.700	49.679	0.100
70.800	60.214	0.100
70.900	54.362	0.100
71.000	51.542	0.100
71.100	50.239	0.100
71.200	44.870	0.100
71.300	46.134	0.100
71.400	47.061	0.100
71.500	45.246	0.100
71.600	50.834	0.100
71.700	50.075	0.100
71.800	42.906	0.100
71.900	41.264	0.100
72.000	40.336	0.100
72.100	46.251	0.100
72.200	50.387	0.100
72.300	55.937	0.100
72.400	47.597	0.100
72.500	55.294	0.100
72.600	41.065	0.100
72.700	33.246	0.100
72.800	43.177	0.100
72.900	40.375	0.100
73.000	37.570	0.100
73.100	45.330	0.100
73.200	58.391	0.100
73.300	49.341	0.100
73.400	44.987	0.100
73.500	41.436	0.100
73.600	38.251	0.100
73.700	49.671	0.100
73.800	53.540	0.100
73.900	56.810	0.100
74.000	45.753	0.100
74.100	52.955	0.100
74.200	49.380	0.100
74.300	46.126	0.100
74.400	49.296	0.100
74.500	55.779	0.100
74.600	51.802	0.100
74.700	43.158	0.100
74.800	45.193	0.100
74.900	42.434	0.100
75.000	42.363	0.100
75.100	47.893	0.100
75.200	52.562	0.100
75.300	45.303	0.100
75.400	44.557	0.100
75.500	33.975	0.100
75.600	52.691	0.100
75.700	51.205	0.100
75.800	47.111	0.100
75.900	42.996	0.100
76.000	42.508	0.100
76.100	40.675	0.100
76.200	53.476	0.100
76.300	53.514	0.100
76.400	46.294	0.100
76.500	50.636	0.100
76.600	49.487	0.100
76.700	47.509	0.100
76.800	39.423	0.100
76.900	47.042	0.100
77.000	55.849	0.100
77.100	40.331	0.100
77.200	49.309	0.100
77.300	54.775	0.100
77.400	43.329	0.100
77.500	45.746	0.100
77.600	55.535	0.100
77.700	49.737	0.100
77.800	39.415	0.100
77.900	56.320	0.100
78.000	37.903	0.100
78.100	42.337	0.100
78.200	40.577	0.100
78.300	52.089	0.100
78.400	47.296	0.100
78.500	41.626	0.100
78.600	41.883	0.100
78.700	47.608	0.100
78.800	53.982	0.100
78.900	46.153	0.100
79.000	48.541	0.100
79.100	49.784	0.100
79.200	38.208	0.100
79.300	47.469	0.100
79.400	51.121	0.100
79.500	41.735	0.100
79.600	47.691	0.100
79.700	37.998	0.100
79.800	44.507	0.100
79.900	40.622	0.100
80.000	45.300	0.100
80.100	44.309	0.100
80.200	53.889	0.100
80.300	47.321	0.100
80.400	45.008	0.100
80.500	40.482	0.100
80.600	52.022	0.100
80.700	42.611	0.100
80.800	51.875	0.100
80.900	53.965	0.100
81.000	47.657	0.100
81.100	43.435	0.100
81.200	54.099	0.100
81.300	48.256	0.100
81.400	45.662	0.100
81.500	53.316	0.100
81.600	42.325	0.100
81.700	41.395	0.100
81.800	56.779	0.100
81.900	44.968	0.100
82.000	46.362	0.100
82.100	50.317	0.100
82.200	43.599	0.100
82.300	49.832	0.100
82.400	37.978	0.100
82.500	48.838	0.100
82.600	42.206	0.100
82.700	44.682	0.100
82.800	49.604	0.100
82.900	50.122	0.100
83.000	42.618	0.100
83.100	51.449	0.100
83.200	34.882	0.100
83.300	45.229	0.100
83.400	43.103	0.100
83.500	53.614	0.100
83.600	47.448	0.100
83.700	43.694	0.100
83.800	42.231	0.100
83.900	57.482	0.100
84.000	42.149	0.100
84.100	48.789	0.100
84.200	45.376	0.100
84.300	51.994	0.100
84.400	48.395	0.100
84.500	46.924	0.100
84.600	47.163	0.100
84.700	38.650	0.100
84.800	31.336	0.100
84.900	45.696	0.100
85.000	42.708	0.100
85.100	51.505	0.100
85.200	47.879	0.100
85.300	49.278	0.100
85.400	49.670	0.100
85.500	50.889	0.100
85.600	40.528	0.100
85.700	46.801	0.100
85.800	46.765	0.100
85.900	42.648	0.100
86.000	41.953	0.100
86.100	41.390	0.100
86.200	44.045	0.100
86.300	29.118	0.100
86.400	42.628	0.100
86.500	49.744	0.100
86.600	60.905	0.100
86.700	53.734	0.100
86.800	45.459	0.100
86.900	39.075	0.100
87.000	49.484	0.100
87.100	53.508	0.100
87.200	41.925	0.100
87.300	47.038	0.100
87.400	41.895	0.100
87.500	35.255	0.100
87.600	42.612	0.100
87.700	44.568	0.100
87.800	52.755	0.100
87.900	50.181	0.100
88.000	47.968	0.100
88.100	38.625	0.100
88.200	49.522	0.100
88.300	42.077	0.100
88.400	51.513	0.100
88.500	47.220	0.100
88.600	39.545	0.100
88.700	44.878	0.100
88.800	40.890	0.100
88.900	47.803	0.100
89.000	49.931	0.100
89.100	51.276	0.100
89.200	57.821	0.100
89.300	46.504	0.100
89.400	45.446	0.100
89.500	40.581	0.100
89.600	51.345	0.100
89.700	47.533	0.100
89.800	50.286	0.100
89.900	58.093	0.100
90.000	47.881	0.100
90.100	41.736	0.100
90.200	47.427	0.100
90.300	39.613	0.100
90.400	42.486	0.100
90.500	46.844	0.100
90.600	39.650	0.100
90.700	44.423	0.100
90.800	35.991	0.100
90.900	26.875	0.100
91.000	32.094	0.100
91.100	35.429	0.100
91.200	30.438	0.100
91.300	32.105	0.100
91.400	28.920	0.100
91.500	22.791	0.100
91.600	20.097	0.100
91.700	15.953	0.100
91.800	15.636	0.100
91.900	17.835	0.100
92.000	13.784	0.100
92.100	8.558	0.100
92.200	15.409	0.100
92.300	10.850	0.100
92.400	9.965	0.100
92.500	7.081	0.100
92.600	9.977	0.100
92.700	2.905	0.100
92.800	11.285	0.100
92.900	3.155	0.100
93.000	5.539	0.100
93.100	7.837	0.100
93.200	6.040	0.100
93.300	-3.947	0.100
93.400	11.023	0.100
93.500	6.548	0.100
93.600	-4.699	0.100
93.700	4.271	0.100
93.800	0.291	0.100
93.900	-2.227	0.100
94.000	-9.902	0.100
94.100	-0.348	0.100
94.200	-6.401	0.100
94.300	-4.564	0.100
