time /s	I /nA	
0.100	-44.133	
0.200	-47.511	
0.300	-85.101	
0.400	-101.051	
0.500	-92.953	
0.600	-84.304	
0.700	-94.836	
0.800	-85.723	
0.900	-78.873	
1.000	-105.753	
1.100	-101.268	
1.200	-118.863	
1.300	-86.103	
1.400	-88.537	
1.500	-62.630	
1.600	-90.565	
1.700	-91.128	
1.800	-100.497	
1.900	-83.519	
2.000	-78.255	
2.100	-90.785	
2.200	-84.148	
2.300	-106.641	
2.400	-61.393	
2.500	-83.315	
2.600	-63.066	
2.700	-109.915	
2.800	-76.825	
2.900	-87.787	
3.000	-79.426	
3.100	-68.696	
3.200	-81.443	
3.300	-105.804	
3.400	-80.487	
3.500	-96.106	
3.600	-74.835	
3.700	-104.987	
3.800	-72.535	
3.900	-64.968	
4.000	-81.259	
4.100	-72.723	
4.200	-80.772	
4.300	-101.941	
4.400	-90.698	
4.500	-59.649	
4.600	-96.892	
4.700	-96.587	
4.800	-85.529	
4.900	-101.184	
5.000	-75.570	
5.100	-94.077	
5.200	-82.345	
5.300	-73.201	
5.400	-65.538	
5.500	-69.570	
5.600	-86.538	
5.700	-66.084	
5.800	-91.878	
5.900	-85.219	
6.000	-79.376	
6.100	-96.004	
6.200	-71.347	
6.300	-81.244	
6.400	-102.897	
6.500	-69.077	
6.600	-69.365	
6.700	-74.653	
6.800	-99.150	
6.900	-82.049	
7.000	-77.534	
7.100	-78.316	
7.200	-74.402	
7.300	-65.555	
7.400	-93.500	
7.500	-92.841	
7.600	-96.144	
7.700	-51.658	
7.800	-68.922	
7.900	-66.940	
8.000	-74.027	
8.100	-97.292	
8.200	-88.516	
8.300	-88.636	
8.400	-77.985	
8.500	-66.022	
8.600	-77.993	
8.700	-99.533	
8.800	-90.226	
8.900	-90.411	
9.000	-64.855	
9.100	-59.946	
9.200	-70.277	
9.300	-98.055	
9.400	-81.750	
9.500	-56.796	
9.600	-80.495	
9.700	-90.975	
9.800	-59.539	
9.900	-70.134	
10.000	-89.653	
10.100	-78.766	
10.200	-68.171	
10.300	-75.347	
10.400	-93.760	
10.500	-110.022	
10.600	-89.763	
10.700	-65.957	
10.800	-51.932	
10.900	-82.509	
11.000	-80.600	
11.100	-81.052	
11.200	-86.316	
11.300	-86.693	
11.400	-67.261	
11.500	-55.434	
11.600	-92.879	
11.700	-72.076	
11.800	-62.308	
11.900	-69.120	
12.000	-100.091	
12.100	-80.774	
12.200	-99.213	
12.300	-73.991	
12.400	-66.171	
12.500	-66.748	
12.600	-63.737	
12.700	-78.506	
12.800	-79.355	
12.900	-77.917	
13.000	-79.354	
13.100	-60.151	
13.200	-74.489	
13.300	-70.223	
13.400	-78.227	
13.500	-88.861	
13.600	-89.801	
13.700	-49.911	
13.800	-70.910	
13.900	-79.341	
14.000	-53.667	
14.100	-55.095	
14.200	-67.230	
14.300	-69.483	
14.400	-73.966	
14.500	-82.503	
14.600	-48.655	
14.700	-81.652	
14.800	-72.876	
14.900	-77.892	
15.000	-76.518	
15.100	-82.818	
15.200	-78.891	
15.300	-61.975	
15.400	-87.205	
15.500	-70.477	
15.600	-55.722	
15.700	-87.275	
15.800	-74.009	
15.900	-101.728	
16.000	-74.278	
16.100	-65.278	
16.200	-79.815	
16.300	-74.147	
16.400	-60.838	
16.500	-70.137	
16.600	-57.509	
16.700	-74.188	
16.800	-83.292	
16.900	-87.425	
17.000	-57.698	
17.100	-82.978	
17.200	-66.966	
17.300	-48.825	
17.400	-70.789	
17.500	-73.850	
17.600	-84.987	
17.700	-60.442	
17.800	-53.319	
17.900	-67.876	
18.000	-57.468	
18.100	-81.911	
18.200	-77.186	
18.300	-56.760	
18.400	-67.423	
18.500	-72.180	
18.600	-79.314	
18.700	-80.621	
18.800	-61.978	
18.900	-54.575	
19.000	-61.262	
19.100	-72.408	
19.200	-61.516	
19.300	-103.431	
19.400	-72.953	
19.500	-77.797	
19.600	-57.168	
19.700	-78.887	
19.800	-70.956	
19.900	-92.617	
20.000	-84.565	
20.100	-58.903	
20.200	-87.456	
20.300	-84.553	
20.400	-71.917	
20.500	-77.181	
20.600	-59.511	
20.700	-55.902	
20.800	-66.772	
20.900	-65.785	
21.000	-72.079	
21.100	-77.433	
21.200	-76.986	
21.300	-66.413	
21.400	-71.786	
21.500	-75.965	
21.600	-45.455	
21.700	-71.746	
21.800	-54.694	
21.900	-84.167	
22.000	-71.030	
22.100	-74.752	
22.200	-70.756	
22.300	-48.516	
22.400	-81.385	
22.500	-52.179	
22.600	-68.020	
22.700	-84.415	
22.800	-82.640	
22.900	-53.602	
23.000	-54.449	
23.100	-66.190	
23.200	-82.297	
23.300	-70.180	
23.400	-62.953	
23.500	-83.603	
23.600	-59.139	
23.700	-56.760	
23.800	-55.257	
23.900	-71.806	
24.000	-66.593	
24.100	-78.344	
24.200	-64.153	
24.300	-64.163	
24.400	-65.363	
24.500	-90.924	
24.600	-57.408	
24.700	-73.777	
24.800	-65.836	
24.900	-74.603	
25.000	-52.303	
25.100	-60.687	
25.200	-84.201	
25.300	-51.046	
25.400	-41.848	
25.500	-52.409	
25.600	-73.243	
25.700	-72.542	
25.800	-53.711	
25.900	-45.031	
26.000	-65.413	
26.100	-49.223	
26.200	-68.477	
26.300	-66.201	
26.400	-48.288	
26.500	-67.669	
26.600	-57.980	
26.700	-67.936	
26.800	-63.581	
26.900	-76.703	
27.000	-64.630	
27.100	-46.418	
27.200	-60.322	
27.300	-71.046	
27.400	-62.914	
27.500	-79.425	
27.600	-78.669	
27.700	-56.048	
27.800	-60.190	
27.900	-41.580	
28.000	-71.021	
28.100	-46.152	
28.200	-64.879	
28.300	-53.205	
28.400	-71.358	
28.500	-73.037	
28.600	-68.291	
28.700	-66.214	
28.800	-72.217	
28.900	-71.290	
29.000	-37.790	
29.100	-71.480	
29.200	-46.500	
29.300	-61.649	
29.400	-68.648	
29.500	-65.439	
29.600	-49.946	
29.700	-79.792	
29.800	-65.873	
29.900	-66.304	
30.000	-47.446	
30.100	-57.206	
30.200	-46.703	
30.300	-58.771	
30.400	-62.473	
30.500	-53.525	
30.600	-55.946	
30.700	-58.019	
30.800	-51.863	
30.900	-74.354	
31.000	-52.146	
31.100	-55.698	
31.200	-30.021	
31.300	-8.049	
31.400	-54.534	
31.500	-53.667	
31.600	-47.030	
31.700	-52.441	
31.800	-29.148	
31.900	-25.202	
32.000	-26.406	
32.100	-58.912	
32.200	-39.772	
32.300	-48.335	
32.400	-48.764	
32.500	-30.490	
32.600	-35.387	
32.700	-63.334	
32.800	-45.011	
32.900	-24.542	
33.000	-30.487	
33.100	-31.818	
33.200	-46.561	
33.300	-36.159	
33.400	-34.621	
33.500	-34.159	
33.600	-30.358	
33.700	-50.654	
33.800	-29.589	
33.900	-26.270	
34.000	-41.183	
34.100	-13.093	
34.200	-46.604	
34.300	-41.260	
34.400	-51.983	
34.500	-22.969	
34.600	3.648	
34.700	-32.596	
34.800	-17.336	
34.900	-53.039	
35.000	-42.247	
35.100	-18.231	
35.200	-12.316	
35.300	-19.675	
35.400	-18.163	
35.500	-25.023	
35.600	-28.642	
35.700	-34.109	
35.800	-24.470	
35.900	-17.829	
36.000	-7.301	
36.100	-37.104	
36.200	-40.401	
36.300	-15.157	
36.400	-23.060	
36.500	-14.371	
36.600	1.803	
36.700	-26.901	
36.800	-21.598	
36.900	-20.975	
37.000	0.574	
37.100	-6.640	
37.200	-13.450	
37.300	-13.949	
37.400	-25.906	
37.500	-33.207	
37.600	-11.999	
37.700	-22.451	
37.800	-0.097	
37.900	-36.064	
38.000	-15.774	
38.100	-15.936	
38.200	-22.100	
38.300	-21.804	
38.400	-21.145	
38.500	-16.454	
38.600	-6.997	
38.700	3.020	
38.800	-4.540	
38.900	10.649	
39.000	-25.773	
39.100	-29.509	
39.200	-50.057	
39.300	-15.685	
39.400	-10.958	
39.500	15.142	
39.600	-22.707	
39.700	-13.005	
39.800	-17.914	
39.900	-6.398	
40.000	1.928	
40.100	-12.557	
40.200	-17.724	
40.300	-20.687	
40.400	-25.950	
40.500	-14.432	
40.600	3.985	
40.700	-7.227	
40.800	-17.687	
40.900	-14.555	
41.000	-11.154	
41.100	-0.557	
41.200	-10.625	
41.300	-20.944	
41.400	-11.087	
41.500	-32.441	
41.600	-14.270	
41.700	-3.988	
41.800	6.522	
41.900	-18.137	
42.000	-33.971	
42.100	6.022	
42.200	1.669	
42.300	0.729	
42.400	7.817	
42.500	15.081	
42.600	-31.357	
42.700	-23.292	
42.800	0.124	
42.900	-5.676	
43.000	-16.742	
43.100	0.989	
43.200	-13.876	
43.300	-20.252	
43.400	2.984	
43.500	4.743	
43.600	-6.885	
43.700	-4.709	
43.800	-24.703	
43.900	-5.960	
44.000	-4.027	
44.100	4.715	
44.200	-7.773	
44.300	-21.550	
44.400	-10.200	
44.500	-8.753	
44.600	-28.483	
44.700	-6.243	
44.800	-18.014	
44.900	-0.119	
45.000	-16.565	
45.100	-3.706	
45.200	-13.216	
45.300	8.558	
45.400	-10.611	
45.500	2.969	
45.600	-36.094	
45.700	-10.857	
45.800	8.808	
45.900	5.393	
46.000	-13.720	
46.100	-24.993	
46.200	-14.631	
46.300	28.888	
46.400	1.516	
46.500	-4.097	
46.600	-5.036	
46.700	-17.207	
46.800	-18.417	
46.900	8.044	
47.000	-24.429	
47.100	-26.120	
47.200	-0.937	
47.300	-25.086	
47.400	0.518	
47.500	-21.241	
47.600	17.713	
47.700	-17.192	
47.800	-14.177	
47.900	-23.459	
48.000	-10.180	
48.100	-12.771	
48.200	13.695	
48.300	23.657	
48.400	-31.208	
48.500	-2.981	
48.600	-4.292	
48.700	4.286	
48.800	-40.622	
48.900	6.853	
49.000	-12.673	
49.100	-30.211	
49.200	-19.408	
49.300	10.695	
49.400	11.287	
49.500	4.423	
49.600	-4.950	
49.700	-9.597	
49.800	-8.452	
49.900	-12.010	
50.000	-6.330	
50.100	-6.937	
50.200	-15.924	
50.300	-24.105	
50.400	-9.586	
50.500	23.784	
50.600	-17.392	
50.700	-38.451	
50.800	-9.768	
50.900	-12.641	
51.000	-0.103	
51.100	12.256	
51.200	-7.440	
51.300	7.975	
51.400	-11.022	
51.500	-20.094	
51.600	-14.676	
51.700	26.979	
51.800	-1.567	
51.900	-28.213	
52.000	-12.018	
52.100	5.152	
52.200	-11.516	
52.300	0.672	
52.400	-22.130	
52.500	-6.114	
52.600	19.799	
52.700	-40.839	
52.800	14.510	
52.900	10.960	
53.000	-3.111	
53.100	-2.084	
53.200	16.740	
53.300	3.257	
53.400	-20.376	
53.500	-29.684	
53.600	1.997	
53.700	-6.153	
53.800	-8.785	
53.900	3.249	
54.000	-0.200	
54.100	0.027	
54.200	-9.526	
54.300	-16.534	
54.400	-4.189	
54.500	-15.384	
54.600	-1.279	
54.700	-14.443	
54.800	-7.670	
54.900	-19.565	
55.000	5.895	
55.100	-26.256	
55.200	-5.165	
55.300	14.406	
55.400	12.761	
55.500	0.230	
55.600	-13.555	
55.700	-20.791	
55.800	5.949	
55.900	7.514	
56.000	-1.802	
56.100	-16.734	
56.200	3.796	
56.300	7.533	
56.400	-22.259	
56.500	-6.006	
56.600	-7.949	
56.700	5.735	
56.800	-2.897	
56.900	-2.601	
57.000	3.871	
57.100	0.114	
57.200	-3.280	
57.300	-2.847	
57.400	2.960	
57.500	-0.376	
57.600	6.489	
57.700	9.152	
57.800	-11.092	
57.900	-20.343	
58.000	-21.948	
58.100	17.426	
58.200	9.267	
58.300	1.760	
58.400	-3.486	
58.500	-4.062	
58.600	0.196	
58.700	-1.252	
58.800	15.676	
58.900	-16.262	
59.000	-14.655	
59.100	-1.978	
59.200	25.814	
59.300	13.198	
59.400	-21.638	
59.500	-6.377	
59.600	-5.144	
59.700	-7.118	
59.800	-4.088	
59.900	11.822	
60.000	10.691	
60.100	11.743	
60.200	6.401	
60.300	1.023	
60.400	6.724	
60.500	11.034	
60.600	-10.983	
60.700	11.593	
60.800	-5.402	
60.900	-14.184	
61.000	23.552	
61.100	13.703	
61.200	6.934	
61.300	-6.896	
61.400	-12.702	
61.500	-8.919	
61.600	0.606	
61.700	14.208	
61.800	-5.253	
61.900	-2.910	
62.000	1.095	
62.100	8.305	
62.200	-0.817	
62.300	-2.235	
62.400	-26.181	
62.500	3.782	
62.600	25.660	
62.700	-0.854	
62.800	8.471	
62.900	5.694	
63.000	17.117	
63.100	-1.085	
63.200	-19.756	
63.300	-7.139	
63.400	-1.446	
63.500	-7.528	
63.600	-5.226	
63.700	1.152	
63.800	1.523	
63.900	8.586	
64.000	4.926	
64.100	3.105	
64.200	10.442	
64.300	1.344	
64.400	-4.774	
64.500	14.237	
64.600	16.938	
64.700	20.306	
64.800	5.369	
64.900	-2.603	
65.000	-2.397	
65.100	9.996	
65.200	18.404	
65.300	-7.666	
65.400	-6.753	
65.500	-6.406	
65.600	11.781	
65.700	9.496	
65.800	19.453	
65.900	-4.814	
66.000	-8.090	
66.100	-18.740	
66.200	8.256	
66.300	12.955	
66.400	9.693	
66.500	16.665	
66.600	-7.108	
66.700	14.298	
66.800	-6.270	
66.900	10.740	
67.000	18.187	
67.100	5.675	
67.200	-9.197	
67.300	-11.905	
67.400	11.313	
67.500	19.744	
67.600	9.541	
67.700	-7.707	
67.800	-5.228	
67.900	16.811	
68.000	16.577	
68.100	4.292	
68.200	0.678	
68.300	-14.722	
68.400	-12.695	
68.500	14.637	
68.600	14.852	
68.700	8.167	
68.800	15.182	
68.900	2.354	
69.000	-8.073	
69.100	-8.063	
69.200	19.918	
69.300	19.023	
69.400	-6.900	
69.500	6.473	
69.600	16.699	
69.700	-10.195	
69.800	37.400	
69.900	26.089	
70.000	-2.210	
70.100	-6.778	
70.200	-3.589	
70.300	-5.055	
70.400	-0.741	
70.500	11.429	
70.600	-21.739	
70.700	44.599	
70.800	16.354	
70.900	30.531	
71.000	19.365	
71.100	8.724	
71.200	15.136	
71.300	5.607	
71.400	9.997	
71.500	5.863	
71.600	33.521	
71.700	5.635	
71.800	3.699	
71.900	-9.955	
72.000	7.810	
72.100	11.842	
72.200	-12.138	
72.300	13.230	
72.400	22.322	
72.500	3.791	
72.600	-1.726	
72.700	11.579	
72.800	13.378	
72.900	17.691	
73.000	-13.666	
73.100	-16.885	
73.200	7.048	
73.300	47.027	
73.400	25.735	
73.500	7.742	
73.600	12.461	
73.700	-1.407	
73.800	5.529	
73.900	17.016	
74.000	12.571	
74.100	-8.359	
74.200	38.157	
74.300	23.623	
74.400	-0.216	
74.500	12.700	
74.600	23.297	
74.700	12.001	
74.800	5.589	
74.900	3.490	
75.000	8.611	
75.100	17.124	
75.200	14.525	
75.300	18.049	
75.400	7.039	
75.500	17.237	
75.600	17.647	
75.700	22.022	
75.800	6.613	
75.900	1.622	
76.000	-11.163	
76.100	12.591	
76.200	-5.584	
76.300	-7.062	
76.400	16.534	
76.500	55.052	
76.600	3.592	
76.700	23.079	
76.800	15.511	
76.900	16.559	
77.000	-7.151	
77.100	5.143	
77.200	21.911	
77.300	21.304	
77.400	4.603	
77.500	11.869	
77.600	-20.213	
77.700	16.605	
77.800	15.301	
77.900	3.390	
78.000	0.338	
78.100	12.769	
78.200	8.144	
78.300	14.552	
78.400	28.348	
78.500	13.970	
78.600	9.230	
78.700	33.849	
78.800	23.800	
78.900	6.394	
79.000	-0.758	
79.100	26.015	
79.200	24.445	
79.300	7.338	
79.400	3.113	
79.500	21.993	
79.600	-0.021	
79.700	38.609	
79.800	19.165	
79.900	-0.239	
80.000	9.175	
80.100	22.955	
80.200	-7.611	
80.300	21.466	
80.400	18.774	
80.500	14.517	
80.600	11.638	
80.700	4.939	
80.800	7.809	
80.900	24.155	
81.000	7.511	
81.100	14.926	
81.200	14.948	
81.300	22.087	
81.400	25.446	
81.500	22.225	
81.600	14.610	
81.700	28.519	
81.800	7.579	
81.900	9.154	
82.000	3.458	
82.100	12.509	
82.200	15.178	
82.300	20.162	
82.400	18.881	
82.500	23.191	
82.600	14.404	
82.700	16.008	
82.800	15.067	
82.900	8.811	
83.000	4.297	
83.100	-6.184	
83.200	4.323	
83.300	-2.248	
83.400	30.919	
83.500	21.898	
83.600	0.564	
83.700	-13.540	
83.800	17.666	
83.900	31.507	
84.000	19.866	
84.100	-12.082	
84.200	12.018	
84.300	13.983	
84.400	30.607	
84.500	26.930	
84.600	1.321	
84.700	13.007	
84.800	36.675	
84.900	28.820	
85.000	11.454	
85.100	39.388	
85.200	28.170	
85.300	10.661	
85.400	14.003	
85.500	18.928	
85.600	17.792	
85.700	21.578	
85.800	-0.733	
85.900	6.266	
86.000	15.891	
86.100	25.662	
86.200	41.248	
86.300	31.346	
86.400	6.177	
86.500	37.315	
86.600	13.834	
86.700	43.603	
86.800	41.564	
86.900	16.247	
87.000	1.087	
87.100	16.063	
87.200	-0.300	
87.300	24.538	
87.400	10.024	
87.500	7.728	
87.600	25.519	
87.700	28.775	
87.800	4.707	
87.900	31.467	
88.000	25.504	
88.100	32.311	
88.200	5.773	
88.300	-0.751	
88.400	30.758	
88.500	39.490	
88.600	30.429	
88.700	5.834	
88.800	1.555	
88.900	14.964	
89.000	42.080	
89.100	50.751	
89.200	24.928	
89.300	3.180	
89.400	-3.590	
89.500	27.627	
89.600	15.240	
89.700	7.931	
89.800	16.414	
89.900	11.071	
90.000	0.346	
90.100	-15.243	
90.200	17.661	
90.300	34.606	
90.400	9.120	
90.500	10.697	
90.600	-23.225	
90.700	13.187	
90.800	22.981	
90.900	0.560	
91.000	2.593	
91.100	-4.921	
91.200	-26.166	
91.300	14.445	
91.400	-18.120	
91.500	4.553	
91.600	-22.496	
91.700	-28.939	
91.800	-15.986	
91.900	-13.523	
92.000	8.485	
92.100	-34.636	
92.200	-2.289	
92.300	-24.772	
92.400	-6.186	
92.500	-2.097	
92.600	-22.440	
92.700	-4.012	
92.800	-2.381	
92.900	-23.944	
93.000	-16.922	
93.100	6.555	
93.200	-19.661	
93.300	-15.976	
93.400	-14.603	
93.500	-28.507	
93.600	-35.763	
93.700	-3.681	
93.800	-17.302	
93.900	9.708	
94.000	-31.504	
94.100	-43.561	
94.200	1.756	
94.300	-30.518	
94.400	-25.831	
94.500	-23.041	
94.600	-26.331	
94.700	-16.412	
94.800	-18.683	
94.900	-15.472	
95.000	-24.131	
95.100	4.456	
95.200	-34.890	
95.300	-41.257	
95.400	-15.961	
95.500	-14.327	
95.600	-25.231	
95.700	-29.534	
95.800	-16.400	
95.900	-33.577	
96.000	-6.595	
96.100	-2.865	
96.200	-27.093	
96.300	-20.242	
96.400	-22.889	
96.500	-31.632	
96.600	-34.106	
96.700	-11.332	
96.800	-23.525	
96.900	-31.361	
97.000	-34.100	
97.100	-41.727	
97.200	-9.692	
97.300	-11.919	
97.400	-26.638	
97.500	-34.158	
97.600	-26.956	
97.700	-14.728	
97.800	-17.468	
97.900	-14.033	
98.000	-8.555	
98.100	-27.982	
98.200	-30.695	
98.300	-33.016	
98.400	-14.904	
98.500	-36.483	
98.600	-5.782	
98.700	-25.219	
98.800	-16.682	
98.900	-42.371	
99.000	-14.405	
99.100	-30.402	
99.200	-6.275	
99.300	-19.057	
99.400	-25.839	
99.500	-27.778	
99.600	1.070	
99.700	-22.219	
99.800	-16.382	
99.900	-50.088	
100.000	-33.170	
100.100	-41.321	
100.200	-0.400	
100.300	-4.475	
100.400	-3.973	
100.500	-49.561	
100.600	-44.615	
100.700	-23.907	
100.800	-16.014	
100.900	-24.343	
101.000	-26.070	
101.100	-27.192	
101.200	-35.978	
101.300	-24.729	
101.400	-21.502	
101.500	-13.688	
101.600	-34.245	
101.700	-36.971	
101.800	-37.931	
101.900	-17.781	
102.000	-29.481	
102.100	-35.597	
102.200	-45.223	
102.300	-25.253	
102.400	-11.602	
102.500	-37.996	
102.600	-4.323	
102.700	-25.739	
102.800	-29.661	
102.900	-46.290	
103.000	-30.109	
103.100	-25.956	
103.200	-40.121	
103.300	-25.475	
103.400	-41.415	
103.500	-31.655	
103.600	-38.875	
103.700	-46.306	
103.800	-19.656	
103.900	-25.630	
104.000	-38.614	
104.100	-17.254	
104.200	-26.958	
104.300	-22.332	
104.400	-24.523	
104.500	-22.833	
104.600	-36.394	
104.700	-33.712	
104.800	-30.882	
104.900	-20.276	
105.000	-35.081	
105.100	-39.113	
105.200	-29.986	
105.300	-50.931	
105.400	-19.896	
105.500	-19.069	
105.600	-26.690	
105.700	-34.454	
105.800	-37.479	
105.900	-30.183	
106.000	-23.045	
106.100	-31.889	
106.200	-12.413	
106.300	-29.376	
106.400	-39.290	
106.500	-32.695	
106.600	-43.122	
106.700	-41.324	
106.800	-28.684	
106.900	-56.854	
107.000	-21.938	
107.100	-56.291	
107.200	-31.286	
107.300	-23.599	
107.400	-16.512	
107.500	-28.964	
107.600	-21.397	
107.700	-27.687	
107.800	-36.311	
107.900	-24.968	
108.000	-50.426	
108.100	-68.102	
108.200	-25.495	
108.300	-25.594	
108.400	-30.624	
108.500	-32.892	
108.600	-36.262	
108.700	-53.719	
108.800	-22.286	
108.900	-38.556	
109.000	-17.824	
109.100	-34.083	
109.200	-46.919	
109.300	-46.570	
109.400	-16.682	
109.500	-32.548	
109.600	-0.543	
109.700	-47.391	
109.800	-55.053	
109.900	-18.246	
110.000	-44.306	
110.100	-19.264	
110.200	-47.161	
110.300	-44.568	
110.400	-24.265	
110.500	-64.124	
110.600	-16.689	
110.700	-15.570	
110.800	-41.250	
110.900	-52.300	
111.000	-31.434	
111.100	-48.943	
111.200	-41.170	
111.300	-2.528	
111.400	-40.271	
111.500	-51.935	
111.600	-58.715	
111.700	-55.802	
111.800	-32.816	
111.900	-35.053	
112.000	-11.886	
112.100	-50.935	
112.200	-33.814	
112.300	-29.361	
112.400	-35.094	
112.500	-32.000	
112.600	-35.891	
112.700	-49.057	
112.800	-52.917	
112.900	-40.236	
113.000	-28.556	
113.100	-30.494	
113.200	-41.690	
113.300	-36.096	
113.400	-33.825	
113.500	-23.044	
113.600	-34.048	
113.700	-42.321	
113.800	-25.755	
113.900	-24.634	
114.000	-54.391	
114.100	-32.822	
114.200	-39.887	
114.300	-36.736	
114.400	-74.712	
114.500	-50.102	
114.600	-24.766	
114.700	-26.074	
114.800	-30.714	
114.900	-32.678	
115.000	-34.540	
115.100	-46.918	
115.200	-44.037	
115.300	-29.369	
115.400	-41.841	
115.500	-34.697	
115.600	-47.952	
115.700	-26.384	
115.800	-35.564	
115.900	-41.892	
116.000	-31.942	
116.100	-14.362	
116.200	-44.265	
116.300	-46.659	
116.400	-46.028	
116.500	-35.325	
116.600	-38.522	
116.700	-32.909	
116.800	-59.380	
116.900	-32.559	
117.000	-22.557	
117.100	-40.247	
117.200	-29.298	
117.300	-41.002	
117.400	-35.757	
117.500	-61.134	
117.600	-27.903	
117.700	-50.358	
117.800	-30.023	
117.900	-52.107	
118.000	-25.692	
118.100	-40.317	
118.200	-21.840	
118.300	-28.248	
118.400	-34.710	
118.500	-45.986	
118.600	-52.272	
118.700	-7.906	
118.800	-32.125	
118.900	-60.612	
119.000	-45.881	
119.100	-19.000	
119.200	-34.368	
119.300	-40.499	
119.400	-32.200	
119.500	-33.904	
119.600	-33.860	
119.700	-42.482	
119.800	-29.750	
119.900	-38.061	
120.000	-46.618	
120.100	-36.756	
120.200	-41.007	
120.300	-44.870	
