time /s	I /nA	
0.100	42.856	
0.200	4.367	
0.300	7.651	
0.400	5.508	
0.500	-6.727	
0.600	-9.103	
0.700	4.202	
0.800	12.322	
0.900	5.166	
1.000	0.406	
1.100	-2.326	
1.200	-12.805	
1.300	14.308	
1.400	4.864	
1.500	10.761	
1.600	-15.895	
1.700	9.668	
1.800	0.096	
1.900	11.079	
2.000	-15.802	
2.100	-6.093	
2.200	5.430	
2.300	-5.496	
2.400	-6.736	
2.500	5.786	
2.600	18.769	
2.700	5.215	
2.800	11.306	
2.900	5.993	
3.000	-7.300	
3.100	-10.277	
3.200	-7.069	
3.300	7.717	
3.400	-5.963	
3.500	-3.808	
3.600	-9.580	
3.700	-7.206	
3.800	2.745	
3.900	4.445	
4.000	-5.400	
4.100	-13.205	
4.200	4.698	
4.300	6.831	
4.400	-14.816	
4.500	-9.301	
4.600	9.969	
4.700	7.831	
4.800	3.905	
4.900	-16.611	
5.000	6.152	
5.100	11.865	
5.200	3.010	
5.300	-10.415	
5.400	-6.304	
5.500	-1.877	
5.600	3.871	
5.700	8.366	
5.800	-11.012	
5.900	-16.394	
6.000	4.024	
6.100	-2.555	
6.200	2.128	
6.300	-1.299	
6.400	-3.952	
6.500	7.898	
6.600	-13.942	
6.700	-6.377	
6.800	-7.484	
6.900	-9.614	
7.000	-6.867	
7.100	-5.112	
7.200	-16.238	
7.300	29.065	
7.400	-2.435	
7.500	-9.547	
7.600	4.665	
7.700	-14.986	
7.800	-23.396	
7.900	-9.798	
8.000	7.772	
8.100	-6.410	
8.200	-2.785	
8.300	-7.130	
8.400	6.011	
8.500	-13.758	
8.600	-0.743	
8.700	24.819	
8.800	1.336	
8.900	3.767	
9.000	-7.238	
9.100	-0.977	
9.200	13.824	
9.300	-18.969	
9.400	-14.047	
9.500	8.597	
9.600	-16.428	
9.700	13.290	
9.800	-7.303	
9.900	9.283	
10.000	-0.005	
10.100	-1.742	
10.200	-2.345	
10.300	16.236	
10.400	1.966	
10.500	-4.154	
10.600	-21.975	
10.700	-11.878	
10.800	-3.819	
10.900	-4.892	
11.000	3.330	
11.100	-3.998	
11.200	-17.055	
11.300	-12.108	
11.400	4.190	
11.500	4.630	
11.600	-7.071	
11.700	-4.214	
11.800	14.463	
11.900	-22.830	
12.000	9.549	
12.100	9.877	
12.200	6.897	
12.300	-14.633	
12.400	-18.010	
12.500	-4.577	
12.600	-17.492	
12.700	-7.415	
12.800	-10.540	
12.900	-10.440	
13.000	-14.411	
13.100	16.398	
13.200	10.464	
13.300	7.963	
13.400	5.303	
13.500	-7.357	
13.600	-1.147	
13.700	-9.616	
13.800	-7.723	
13.900	-8.720	
14.000	-15.382	
14.100	-2.178	
14.200	-1.940	
14.300	-7.323	
14.400	12.028	
14.500	-19.845	
14.600	-10.263	
14.700	-2.631	
14.800	-8.261	
14.900	-9.094	
15.000	9.376	
15.100	-12.458	
15.200	-4.306	
15.300	0.724	
15.400	-12.015	
15.500	1.236	
15.600	2.452	
15.700	5.395	
15.800	-0.820	
15.900	-28.492	
16.000	0.914	
16.100	5.200	
16.200	6.574	
16.300	-29.071	
16.400	-18.250	
16.500	-21.913	
16.600	2.803	
16.700	-3.461	
16.800	-7.153	
16.900	-22.178	
17.000	-10.096	
17.100	3.635	
17.200	5.055	
17.300	-1.205	
17.400	2.065	
17.500	-3.933	
17.600	9.629	
17.700	-8.360	
17.800	13.702	
17.900	-8.769	
18.000	3.395	
18.100	-22.411	
18.200	17.410	
18.300	-10.662	
18.400	1.473	
18.500	-4.071	
18.600	4.616	
18.700	2.901	
18.800	-9.300	
18.900	-2.838	
19.000	5.958	
19.100	2.602	
19.200	2.491	
19.300	-11.352	
19.400	-22.226	
19.500	7.123	
19.600	7.032	
19.700	16.140	
19.800	-11.488	
19.900	0.773	
20.000	-11.731	
20.100	-8.058	
20.200	-19.535	
20.300	7.691	
20.400	-1.602	
20.500	-11.857	
20.600	4.908	
20.700	5.760	
20.800	7.045	
20.900	-1.880	
21.000	8.664	
21.100	-11.639	
21.200	-11.710	
21.300	-6.956	
21.400	-7.302	
21.500	7.408	
21.600	6.050	
21.700	-23.748	
21.800	-10.501	
21.900	-2.050	
22.000	9.900	
22.100	-8.153	
22.200	-2.530	
22.300	-5.385	
22.400	-7.182	
22.500	5.402	
22.600	-0.962	
22.700	-25.846	
22.800	-15.967	
22.900	-0.165	
23.000	4.041	
23.100	5.619	
23.200	0.462	
23.300	0.267	
23.400	7.060	
23.500	-15.316	
23.600	-5.496	
23.700	-0.208	
23.800	10.325	
23.900	-0.899	
24.000	-17.275	
24.100	-5.805	
24.200	4.111	
24.300	23.571	
24.400	3.464	
24.500	3.237	
24.600	-5.972	
24.700	-12.474	
24.800	-7.857	
24.900	10.953	
25.000	4.316	
25.100	-6.237	
25.200	-1.360	
25.300	-3.734	
25.400	-0.399	
25.500	-11.927	
25.600	1.152	
25.700	10.128	
25.800	-15.357	
25.900	-2.864	
26.000	-0.490	
26.100	17.612	
26.200	8.468	
26.300	-6.476	
26.400	0.811	
26.500	-0.056	
26.600	-3.722	
26.700	3.345	
26.800	-1.561	
26.900	6.088	
27.000	0.262	
27.100	-12.115	
27.200	-9.805	
27.300	4.756	
27.400	11.811	
27.500	-8.574	
27.600	-5.669	
27.700	-9.392	
27.800	6.198	
27.900	-1.903	
28.000	-22.428	
28.100	-4.220	
28.200	4.949	
28.300	13.650	
28.400	-19.383	
28.500	-15.175	
28.600	4.924	
28.700	-10.425	
28.800	-3.559	
28.900	-0.395	
29.000	1.301	
29.100	32.050	
29.200	-11.879	
29.300	-5.529	
29.400	2.825	
29.500	1.497	
29.600	4.214	
29.700	-4.970	
29.800	-10.196	
29.900	-4.253	
30.000	-17.911	
30.100	6.062	
30.200	15.222	
30.300	-4.524	
30.400	3.398	
30.500	11.979	
30.600	-10.489	
30.700	6.261	
30.800	30.002	
30.900	-0.973	
31.000	-8.477	
31.100	14.244	
31.200	-2.513	
31.300	6.621	
31.400	17.521	
31.500	10.734	
31.600	14.884	
31.700	13.562	
31.800	-3.804	
31.900	12.120	
32.000	37.990	
32.100	2.349	
32.200	1.401	
32.300	19.006	
32.400	25.251	
32.500	38.498	
32.600	24.988	
32.700	9.352	
32.800	19.495	
32.900	14.978	
33.000	4.152	
33.100	-1.477	
33.200	-5.618	
33.300	28.953	
33.400	3.584	
33.500	27.342	
33.600	3.803	
33.700	33.044	
33.800	20.237	
33.900	12.369	
34.000	7.958	
34.100	35.050	
34.200	25.838	
34.300	9.958	
34.400	23.483	
34.500	0.466	
34.600	34.203	
34.700	12.560	
34.800	14.172	
34.900	21.730	
35.000	15.172	
35.100	42.765	
35.200	7.392	
35.300	30.489	
35.400	14.529	
35.500	24.851	
35.600	17.922	
35.700	19.856	
35.800	17.798	
35.900	14.437	
36.000	14.418	
36.100	41.731	
36.200	28.781	
36.300	20.194	
36.400	24.863	
36.500	26.909	
36.600	27.397	
36.700	6.567	
36.800	28.918	
36.900	23.595	
37.000	29.701	
37.100	37.351	
37.200	27.767	
37.300	32.708	
37.400	-2.710	
37.500	13.927	
37.600	8.009	
37.700	40.958	
37.800	35.382	
37.900	20.324	
38.000	12.608	
38.100	20.694	
38.200	21.424	
38.300	22.048	
38.400	35.387	
38.500	22.168	
38.600	14.658	
38.700	10.725	
38.800	7.885	
38.900	43.160	
39.000	27.758	
39.100	34.696	
39.200	11.837	
39.300	1.200	
39.400	27.827	
39.500	20.036	
39.600	25.205	
39.700	26.681	
39.800	23.877	
39.900	19.759	
40.000	20.798	
40.100	40.558	
40.200	24.246	
40.300	25.134	
40.400	27.662	
40.500	5.643	
40.600	5.049	
40.700	25.064	
40.800	38.851	
40.900	8.700	
41.000	20.800	
41.100	12.110	
41.200	34.213	
41.300	28.825	
41.400	20.372	
41.500	4.376	
41.600	5.525	
41.700	23.838	
41.800	17.064	
41.900	21.457	
42.000	24.183	
42.100	3.073	
42.200	29.637	
42.300	29.310	
42.400	41.466	
42.500	29.668	
42.600	7.404	
42.700	32.580	
42.800	30.296	
42.900	-1.022	
43.000	24.067	
43.100	14.945	
43.200	32.165	
43.300	25.864	
43.400	14.784	
43.500	33.778	
43.600	28.553	
43.700	18.831	
43.800	43.594	
43.900	29.518	
44.000	29.917	
44.100	17.350	
44.200	26.802	
44.300	25.883	
44.400	21.578	
44.500	18.533	
44.600	23.965	
44.700	33.451	
44.800	34.822	
44.900	13.757	
45.000	31.702	
45.100	16.275	
45.200	13.368	
45.300	34.043	
45.400	21.558	
45.500	9.879	
45.600	48.314	
45.700	20.483	
45.800	24.842	
45.900	18.698	
46.000	26.233	
46.100	22.215	
46.200	31.705	
46.300	11.068	
46.400	26.870	
46.500	23.323	
46.600	23.970	
46.700	32.893	
46.800	28.048	
46.900	31.072	
47.000	27.770	
47.100	47.060	
47.200	41.987	
47.300	20.565	
47.400	24.634	
47.500	27.731	
47.600	48.197	
47.700	19.712	
47.800	22.172	
47.900	24.171	
48.000	15.007	
48.100	28.453	
48.200	33.902	
48.300	29.675	
48.400	23.637	
48.500	20.682	
48.600	31.159	
48.700	25.193	
48.800	47.831	
48.900	8.655	
49.000	62.818	
49.100	14.960	
49.200	15.881	
49.300	19.839	
49.400	36.159	
49.500	41.917	
49.600	29.584	
49.700	29.844	
49.800	11.412	
49.900	26.947	
50.000	37.557	
50.100	20.469	
50.200	24.338	
50.300	31.598	
50.400	6.312	
50.500	31.267	
50.600	52.882	
50.700	59.298	
50.800	2.225	
50.900	17.098	
51.000	31.785	
51.100	36.504	
51.200	13.003	
51.300	27.599	
51.400	30.724	
51.500	22.020	
51.600	34.045	
51.700	36.425	
51.800	39.741	
51.900	26.969	
52.000	21.384	
52.100	32.787	
52.200	17.907	
52.300	44.176	
52.400	44.784	
52.500	29.766	
52.600	6.190	
52.700	32.918	
52.800	23.951	
52.900	22.269	
53.000	44.447	
53.100	26.192	
53.200	32.143	
53.300	28.137	
53.400	31.674	
53.500	29.263	
53.600	22.680	
53.700	36.421	
53.800	36.720	
53.900	25.647	
54.000	28.959	
54.100	45.541	
54.200	43.152	
54.300	20.101	
54.400	17.662	
54.500	27.064	
54.600	42.811	
54.700	26.365	
54.800	32.925	
54.900	28.075	
55.000	26.306	
55.100	43.441	
55.200	31.518	
55.300	26.384	
55.400	35.526	
55.500	33.331	
55.600	36.369	
55.700	29.709	
55.800	30.698	
55.900	29.198	
56.000	33.516	
56.100	34.133	
56.200	13.244	
56.300	12.687	
56.400	36.433	
56.500	46.919	
56.600	15.178	
56.700	21.577	
56.800	28.416	
56.900	24.528	
57.000	40.752	
57.100	36.366	
57.200	21.875	
57.300	37.687	
57.400	28.984	
57.500	23.838	
57.600	23.596	
57.700	43.534	
57.800	29.174	
57.900	18.658	
58.000	30.821	
58.100	38.753	
58.200	25.912	
58.300	22.234	
58.400	30.502	
58.500	16.989	
58.600	25.534	
58.700	42.843	
58.800	43.058	
58.900	36.488	
59.000	31.960	
59.100	23.773	
59.200	38.485	
59.300	39.888	
59.400	40.202	
59.500	36.492	
59.600	18.429	
59.700	27.844	
59.800	21.073	
59.900	28.139	
60.000	41.481	
60.100	33.623	
60.200	15.024	
60.300	31.096	
60.400	13.950	
60.500	37.214	
60.600	28.631	
60.700	29.220	
60.800	38.196	
60.900	47.303	
61.000	25.311	
61.100	32.590	
61.200	13.152	
61.300	34.369	
61.400	23.050	
61.500	37.277	
61.600	36.497	
61.700	8.443	
61.800	14.604	
61.900	42.643	
62.000	18.896	
62.100	33.265	
62.200	46.979	
62.300	43.707	
62.400	38.372	
62.500	34.604	
62.600	25.318	
62.700	29.368	
62.800	30.152	
62.900	34.149	
63.000	37.977	
63.100	17.148	
63.200	25.160	
63.300	36.835	
63.400	47.062	
63.500	35.710	
63.600	36.411	
63.700	24.224	
63.800	24.746	
63.900	29.210	
64.000	34.171	
64.100	31.144	
64.200	29.613	
64.300	30.914	
64.400	23.982	
64.500	26.162	
64.600	29.470	
64.700	18.902	
64.800	41.587	
64.900	31.943	
65.000	24.987	
65.100	29.285	
65.200	27.301	
65.300	28.683	
65.400	40.880	
65.500	-6.760	
65.600	33.098	
65.700	39.315	
65.800	35.510	
65.900	36.203	
66.000	38.638	
66.100	27.256	
66.200	16.112	
66.300	39.363	
66.400	43.392	
66.500	28.580	
66.600	19.687	
66.700	24.022	
66.800	24.514	
66.900	26.193	
67.000	60.340	
67.100	33.210	
67.200	26.182	
67.300	24.716	
67.400	22.791	
67.500	40.206	
67.600	30.280	
67.700	44.301	
67.800	46.665	
67.900	37.181	
68.000	31.512	
68.100	36.590	
68.200	41.146	
68.300	44.604	
68.400	30.748	
68.500	14.706	
68.600	34.249	
68.700	32.904	
68.800	52.150	
68.900	43.917	
69.000	19.047	
69.100	30.312	
69.200	14.911	
69.300	52.200	
69.400	43.516	
69.500	32.040	
69.600	5.617	
69.700	41.642	
69.800	34.966	
69.900	18.521	
70.000	39.178	
70.100	31.525	
70.200	34.100	
70.300	17.478	
70.400	37.681	
70.500	25.930	
70.600	57.915	
70.700	28.812	
70.800	15.731	
70.900	40.146	
71.000	33.120	
71.100	31.554	
71.200	21.054	
71.300	27.675	
71.400	34.679	
71.500	31.737	
71.600	40.811	
71.700	42.060	
71.800	40.380	
71.900	28.704	
72.000	29.426	
72.100	15.033	
72.200	28.545	
72.300	55.311	
72.400	16.810	
72.500	33.517	
72.600	33.771	
72.700	39.867	
72.800	27.878	
72.900	36.726	
73.000	39.089	
73.100	26.138	
73.200	19.710	
73.300	11.144	
73.400	46.921	
73.500	37.594	
73.600	38.253	
73.700	26.904	
73.800	28.853	
73.900	40.955	
74.000	42.917	
74.100	27.478	
74.200	29.176	
74.300	38.926	
74.400	17.575	
74.500	32.209	
74.600	52.211	
74.700	37.875	
74.800	23.123	
74.900	15.015	
75.000	42.973	
75.100	33.798	
75.200	52.317	
75.300	27.946	
75.400	19.097	
75.500	27.809	
75.600	50.756	
75.700	37.380	
75.800	43.206	
75.900	17.272	
76.000	20.982	
76.100	31.977	
76.200	15.580	
76.300	33.207	
76.400	48.479	
76.500	35.088	
76.600	37.964	
76.700	24.682	
76.800	34.136	
76.900	50.990	
77.000	39.165	
77.100	49.893	
77.200	26.326	
77.300	32.117	
77.400	19.327	
77.500	56.610	
77.600	31.262	
77.700	18.788	
77.800	10.280	
77.900	32.681	
78.000	43.740	
78.100	15.952	
78.200	37.958	
78.300	40.181	
78.400	30.213	
78.500	44.652	
78.600	28.425	
78.700	42.746	
78.800	26.149	
78.900	39.911	
79.000	18.997	
79.100	43.682	
79.200	21.380	
79.300	37.271	
79.400	23.549	
79.500	32.798	
79.600	35.980	
79.700	29.433	
79.800	7.949	
79.900	35.166	
80.000	31.808	
80.100	20.253	
80.200	37.005	
80.300	36.595	
80.400	44.110	
80.500	29.705	
80.600	41.621	
80.700	32.923	
80.800	31.128	
80.900	27.622	
81.000	34.071	
81.100	32.614	
81.200	28.878	
81.300	16.591	
81.400	34.465	
81.500	40.183	
81.600	25.502	
81.700	27.045	
81.800	35.443	
81.900	38.542	
82.000	31.732	
82.100	23.365	
82.200	30.369	
82.300	34.172	
82.400	10.873	
82.500	21.627	
82.600	36.828	
82.700	40.488	
82.800	29.965	
82.900	23.546	
83.000	32.295	
83.100	9.348	
83.200	41.277	
83.300	54.705	
83.400	37.902	
83.500	45.106	
83.600	14.642	
83.700	22.072	
83.800	14.662	
83.900	40.874	
84.000	40.548	
84.100	45.497	
84.200	8.142	
84.300	33.133	
84.400	53.571	
84.500	53.098	
84.600	20.117	
84.700	28.895	
84.800	32.201	
84.900	42.116	
85.000	14.693	
85.100	16.796	
85.200	49.736	
85.300	40.941	
85.400	18.878	
85.500	43.606	
85.600	51.004	
85.700	46.894	
85.800	30.339	
85.900	26.472	
86.000	38.059	
86.100	22.433	
86.200	37.583	
86.300	44.431	
86.400	32.733	
86.500	28.085	
86.600	19.344	
86.700	43.176	
86.800	30.186	
86.900	23.654	
87.000	12.393	
87.100	25.044	
87.200	51.198	
87.300	40.299	
87.400	19.858	
87.500	29.512	
87.600	43.876	
87.700	22.636	
87.800	34.355	
87.900	23.762	
88.000	50.882	
88.100	34.414	
88.200	33.186	
88.300	10.929	
88.400	25.814	
88.500	38.305	
88.600	32.850	
88.700	24.914	
88.800	28.961	
88.900	25.896	
89.000	30.998	
89.100	27.943	
89.200	22.419	
89.300	34.890	
89.400	41.891	
89.500	24.692	
89.600	20.303	
89.700	28.242	
89.800	32.409	
89.900	45.238	
90.000	7.882	
90.100	17.968	
90.200	36.463	
90.300	23.654	
90.400	11.390	
90.500	21.156	
90.600	7.398	
90.700	30.699	
90.800	21.436	
90.900	21.776	
91.000	16.751	
91.100	17.815	
91.200	0.368	
91.300	0.416	
91.400	35.980	
91.500	19.138	
91.600	24.147	
91.700	11.560	
91.800	25.837	
91.900	23.521	
92.000	19.222	
92.100	22.865	
92.200	15.665	
92.300	19.714	
92.400	26.623	
92.500	-7.118	
92.600	28.475	
92.700	10.905	
92.800	22.180	
92.900	-3.129	
93.000	29.702	
93.100	11.926	
93.200	4.593	
93.300	11.709	
93.400	16.133	
93.500	6.841	
93.600	-0.265	
93.700	14.388	
93.800	28.861	
93.900	10.601	
94.000	15.100	
94.100	-0.223	
94.200	7.421	
94.300	15.588	
94.400	5.889	
94.500	19.045	
94.600	17.205	
94.700	12.767	
94.800	0.860	
94.900	12.793	
95.000	9.636	
95.100	-6.696	
95.200	-0.586	
95.300	10.653	
95.400	10.227	
95.500	-3.470	
95.600	15.899	
95.700	27.520	
95.800	14.073	
95.900	10.500	
96.000	-1.630	
96.100	11.894	
96.200	1.910	
96.300	12.258	
96.400	-14.384	
96.500	3.161	
96.600	16.732	
96.700	2.675	
96.800	21.832	
96.900	-7.983	
97.000	-5.180	
97.100	-2.231	
97.200	12.667	
97.300	11.194	
97.400	12.008	
97.500	15.803	
97.600	-7.947	
97.700	-15.547	
97.800	0.186	
97.900	3.317	
98.000	28.617	
98.100	12.311	
98.200	2.133	
98.300	5.183	
98.400	1.523	
98.500	0.030	
98.600	5.640	
98.700	6.847	
98.800	12.751	
98.900	-17.991	
99.000	10.181	
99.100	13.738	
99.200	4.105	
99.300	11.461	
99.400	-7.993	
99.500	-9.670	
99.600	-3.228	
99.700	0.796	
99.800	11.671	
99.900	-7.317	
100.000	2.492	
100.100	-12.951	
100.200	17.032	
100.300	4.603	
100.400	2.292	
100.500	5.067	
100.600	-6.833	
100.700	5.913	
100.800	3.335	
100.900	-0.496	
101.000	7.017	
101.100	-10.476	
101.200	-18.934	
101.300	-13.540	
101.400	-8.030	
101.500	-6.841	
101.600	-0.131	
101.700	3.466	
101.800	-3.993	
101.900	-18.536	
102.000	9.171	
102.100	0.689	
102.200	-8.971	
102.300	2.640	
102.400	0.935	
102.500	-7.702	
102.600	6.167	
102.700	-14.878	
102.800	-15.797	
102.900	-22.010	
103.000	-0.192	
103.100	2.042	
103.200	12.082	
103.300	-2.823	
103.400	-21.382	
103.500	-0.674	
103.600	-8.326	
103.700	-8.266	
103.800	-6.544	
103.900	0.017	
104.000	15.376	
104.100	-15.556	
104.200	-17.980	
104.300	19.400	
104.400	1.470	
104.500	-7.932	
104.600	-3.875	
104.700	8.752	
104.800	-25.300	
104.900	3.076	
105.000	-18.255	
105.100	4.913	
105.200	-11.368	
105.300	-17.070	
105.400	-4.826	
105.500	-20.322	
105.600	0.884	
105.700	-14.974	
105.800	-9.065	
105.900	5.251	
106.000	11.022	
106.100	-14.105	
106.200	9.973	
106.300	-7.465	
106.400	-20.253	
106.500	-4.734	
106.600	-3.621	
106.700	-14.548	
106.800	3.259	
106.900	-17.639	
107.000	-27.355	
107.100	-2.094	
107.200	-22.994	
107.300	15.785	
107.400	11.377	
107.500	-8.569	
107.600	-13.897	
107.700	-22.819	
107.800	-14.145	
107.900	-12.286	
108.000	0.845	
108.100	-11.378	
108.200	-10.747	
108.300	13.695	
108.400	-6.059	
108.500	-5.054	
108.600	-26.403	
108.700	-4.835	
108.800	-10.815	
108.900	-11.028	
109.000	-4.518	
109.100	2.730	
109.200	-0.533	
109.300	-8.585	
109.400	2.591	
109.500	-25.255	
109.600	2.772	
109.700	-8.422	
109.800	-26.504	
109.900	-7.700	
110.000	-13.344	
110.100	-11.179	
110.200	-12.171	
110.300	-11.321	
110.400	-3.048	
110.500	-27.691	
110.600	-7.229	
110.700	-19.069	
110.800	-2.233	
110.900	-0.625	
111.000	1.612	
111.100	-37.515	
111.200	-10.793	
111.300	21.635	
111.400	-33.907	
111.500	-3.595	
111.600	-3.019	
111.700	-13.074	
111.800	-10.645	
111.900	-16.372	
112.000	13.407	
112.100	-29.868	
112.200	-27.894	
112.300	-3.446	
112.400	-14.187	
112.500	1.317	
112.600	-8.007	
112.700	-7.830	
112.800	-7.655	
112.900	-10.195	
113.000	-20.802	
113.100	2.076	
113.200	-15.836	
113.300	-4.918	
113.400	-11.056	
113.500	-14.831	
113.600	-25.311	
113.700	-7.430	
113.800	2.337	
113.900	-15.734	
114.000	-21.097	
114.100	-13.516	
114.200	-16.886	
114.300	-5.192	
114.400	-15.126	
114.500	-12.540	
114.600	-22.981	
114.700	-7.299	
114.800	-22.154	
114.900	-6.449	
115.000	-37.933	
115.100	-18.742	
115.200	-9.405	
115.300	-20.253	
115.400	-18.573	
115.500	-21.354	
115.600	-17.230	
115.700	-20.219	
115.800	-11.932	
115.900	-11.270	
116.000	10.092	
116.100	22.485	
116.200	-27.608	
116.300	-23.499	
116.400	-9.941	
116.500	-24.717	
116.600	2.197	
116.700	0.727	
116.800	-3.531	
116.900	-36.598	
117.000	-18.023	
117.100	-21.234	
117.200	-2.238	
117.300	-7.965	
117.400	-2.638	
117.500	-14.682	
117.600	-15.661	
117.700	-3.653	
117.800	-9.804	
117.900	-13.402	
118.000	-10.585	
118.100	-16.483	
118.200	-6.348	
118.300	-21.267	
118.400	-25.244	
118.500	-17.100	
118.600	-16.999	
118.700	-18.242	
118.800	-9.040	
118.900	-18.835	
119.000	18.857	
119.100	-27.410	
119.200	-30.448	
119.300	2.210	
119.400	-0.244	
119.500	-24.342	
119.600	-3.598	
119.700	-30.270	
119.800	-12.055	
119.900	-21.630	
120.000	-12.950	
120.100	-17.313	
120.200	4.113	
120.300	5.604	
120.400	-3.224	
120.500	-22.866	
120.600	-25.917	
120.700	-20.617	
120.800	13.255	
120.900	-5.935	
121.000	-10.063	
121.100	-25.962	
121.200	-5.371	
121.300	-9.772	
121.400	-13.106	
121.500	-9.053	
121.600	-3.145	
121.700	-16.176	
121.800	-14.978	
121.900	-11.104	
122.000	-12.483	
122.100	-32.108	
122.200	-18.967	
122.300	-11.969	
122.400	-18.344	
122.500	-15.148	
122.600	-12.732	
122.700	-27.497	
122.800	-6.172	
122.900	-7.211	
123.000	6.595	
123.100	-16.847	
123.200	-23.695	
123.300	-23.863	
123.400	-19.910	
123.500	-2.441	
123.600	-4.987	
123.700	-25.593	
123.800	-15.626	
123.900	-18.232	
124.000	-36.684	
