time /s	I /nA	
0.100	62.047	
0.200	25.726	
0.300	21.620	
0.400	43.108	
0.500	28.534	
0.600	21.609	
0.700	37.282	
0.800	24.164	
0.900	27.889	
1.000	21.435	
1.100	38.999	
1.200	28.411	
1.300	35.147	
1.400	17.790	
1.500	27.123	
1.600	14.767	
1.700	19.511	
1.800	27.703	
1.900	19.682	
2.000	17.013	
2.100	25.096	
2.200	17.481	
2.300	20.243	
2.400	20.719	
2.500	23.009	
2.600	33.890	
2.700	20.459	
2.800	10.728	
2.900	34.535	
3.000	13.770	
3.100	28.966	
3.200	25.810	
3.300	23.674	
3.400	24.495	
3.500	29.849	
3.600	29.469	
3.700	22.991	
3.800	33.593	
3.900	23.297	
4.000	12.261	
4.100	15.098	
4.200	27.558	
4.300	23.740	
4.400	37.376	
4.500	31.193	
4.600	25.686	
4.700	22.513	
4.800	31.286	
4.900	-1.939	
5.000	20.145	
5.100	9.945	
5.200	28.580	
5.300	27.297	
5.400	22.998	
5.500	6.280	
5.600	30.665	
5.700	22.106	
5.800	25.849	
5.900	20.597	
6.000	26.778	
6.100	10.050	
6.200	5.092	
6.300	24.400	
6.400	23.994	
6.500	29.512	
6.600	28.259	
6.700	15.657	
6.800	18.528	
6.900	10.230	
7.000	30.079	
7.100	24.269	
7.200	26.223	
7.300	33.833	
7.400	23.656	
7.500	21.673	
7.600	26.675	
7.700	33.271	
7.800	23.717	
7.900	9.765	
8.000	25.747	
8.100	20.561	
8.200	29.480	
8.300	23.774	
8.400	16.546	
8.500	32.131	
8.600	18.383	
8.700	17.444	
8.800	16.246	
8.900	34.753	
9.000	13.048	
9.100	16.644	
9.200	27.229	
9.300	23.722	
9.400	7.294	
9.500	23.952	
9.600	20.478	
9.700	23.084	
9.800	17.341	
9.900	21.262	
10.000	18.191	
10.100	22.673	
10.200	18.473	
10.300	12.284	
10.400	13.062	
10.500	20.631	
10.600	32.048	
10.700	26.348	
10.800	18.113	
10.900	11.441	
11.000	30.588	
11.100	23.714	
11.200	18.257	
11.300	8.086	
11.400	22.404	
11.500	22.088	
11.600	25.205	
11.700	0.712	
11.800	29.325	
11.900	10.325	
12.000	24.489	
12.100	24.343	
12.200	32.435	
12.300	6.095	
12.400	16.641	
12.500	31.943	
12.600	19.315	
12.700	25.674	
12.800	7.961	
12.900	21.553	
13.000	21.610	
13.100	30.251	
13.200	19.611	
13.300	27.602	
13.400	24.064	
13.500	11.447	
13.600	28.219	
13.700	8.260	
13.800	20.649	
13.900	17.365	
14.000	35.923	
14.100	22.222	
14.200	15.860	
14.300	35.419	
14.400	19.607	
14.500	15.475	
14.600	18.615	
14.700	-1.781	
14.800	37.069	
14.900	3.053	
15.000	24.502	
15.100	26.159	
15.200	11.996	
15.300	19.470	
15.400	20.350	
15.500	22.969	
15.600	16.894	
15.700	25.413	
15.800	3.909	
15.900	25.381	
16.000	18.401	
16.100	23.527	
16.200	7.219	
16.300	15.399	
16.400	14.832	
16.500	19.999	
16.600	31.364	
16.700	21.066	
16.800	14.709	
16.900	6.648	
17.000	29.251	
17.100	27.149	
17.200	27.395	
17.300	26.695	
17.400	19.203	
17.500	17.641	
17.600	19.875	
17.700	15.048	
17.800	25.404	
17.900	29.057	
18.000	10.926	
18.100	21.384	
18.200	20.541	
18.300	8.020	
18.400	22.090	
18.500	19.241	
18.600	27.929	
18.700	20.376	
18.800	20.145	
18.900	7.750	
19.000	24.816	
19.100	19.294	
19.200	28.514	
19.300	2.645	
19.400	12.003	
19.500	17.241	
19.600	19.574	
19.700	22.104	
19.800	33.567	
19.900	5.324	
20.000	18.308	
20.100	15.093	
20.200	24.684	
20.300	20.169	
20.400	16.162	
20.500	6.246	
20.600	5.006	
20.700	31.153	
20.800	2.256	
20.900	21.928	
21.000	23.506	
21.100	22.744	
21.200	10.107	
21.300	10.350	
21.400	11.786	
21.500	31.302	
21.600	20.117	
21.700	10.595	
21.800	23.726	
21.900	26.162	
22.000	23.265	
22.100	17.656	
22.200	13.744	
22.300	17.751	
22.400	15.774	
22.500	16.848	
22.600	23.792	
22.700	28.515	
22.800	15.795	
22.900	11.245	
23.000	14.089	
23.100	13.225	
23.200	17.738	
23.300	35.548	
23.400	3.814	
23.500	10.156	
23.600	21.654	
23.700	3.954	
23.800	17.266	
23.900	24.565	
24.000	31.867	
24.100	15.656	
24.200	8.733	
24.300	-5.981	
24.400	20.878	
24.500	24.738	
24.600	30.371	
24.700	6.604	
24.800	22.644	
24.900	22.790	
25.000	11.000	
25.100	25.832	
25.200	15.366	
25.300	22.964	
25.400	10.496	
25.500	22.762	
25.600	6.907	
25.700	3.494	
25.800	23.669	
25.900	14.417	
26.000	10.536	
26.100	1.424	
26.200	27.054	
26.300	14.525	
26.400	3.298	
26.500	16.493	
26.600	-0.701	
26.700	21.832	
26.800	-14.742	
26.900	31.573	
27.000	23.583	
27.100	17.798	
27.200	5.347	
27.300	23.790	
27.400	24.439	
27.500	0.988	
27.600	30.373	
27.700	27.546	
27.800	9.295	
27.900	6.466	
28.000	17.923	
28.100	13.378	
28.200	4.518	
28.300	36.286	
28.400	25.282	
28.500	-1.811	
28.600	14.594	
28.700	27.660	
28.800	22.886	
28.900	-0.703	
29.000	6.260	
29.100	25.973	
29.200	24.293	
29.300	14.075	
29.400	9.695	
29.500	13.319	
29.600	18.511	
29.700	3.825	
29.800	19.332	
29.900	10.188	
30.000	27.750	
30.100	12.090	
30.200	35.945	
30.300	22.948	
30.400	3.399	
30.500	22.646	
30.600	23.162	
30.700	30.908	
30.800	19.540	
30.900	14.552	
31.000	31.879	
31.100	15.602	
31.200	34.608	
31.300	19.749	
31.400	29.646	
31.500	14.859	
31.600	42.623	
31.700	36.324	
31.800	30.401	
31.900	34.523	
32.000	35.232	
32.100	28.104	
32.200	41.848	
32.300	30.845	
32.400	42.828	
32.500	29.529	
32.600	34.552	
32.700	30.038	
32.800	50.664	
32.900	44.922	
33.000	42.975	
33.100	40.803	
33.200	40.153	
33.300	48.205	
33.400	42.431	
33.500	32.786	
33.600	33.566	
33.700	55.997	
33.800	34.251	
33.900	38.753	
34.000	45.536	
34.100	42.123	
34.200	46.400	
34.300	30.852	
34.400	46.460	
34.500	33.259	
34.600	34.998	
34.700	39.028	
34.800	43.634	
34.900	38.109	
35.000	48.251	
35.100	28.920	
35.200	58.872	
35.300	39.744	
35.400	34.062	
35.500	50.100	
35.600	63.263	
35.700	43.432	
35.800	63.535	
35.900	36.958	
36.000	45.231	
36.100	40.172	
36.200	45.890	
36.300	55.444	
36.400	47.536	
36.500	56.917	
36.600	47.464	
36.700	60.935	
36.800	44.295	
36.900	39.930	
37.000	43.792	
37.100	50.803	
37.200	36.729	
37.300	25.209	
37.400	34.218	
37.500	42.224	
37.600	40.339	
37.700	47.104	
37.800	34.111	
37.900	50.200	
38.000	49.026	
38.100	48.420	
38.200	40.765	
38.300	31.106	
38.400	23.310	
38.500	30.069	
38.600	40.768	
38.700	40.322	
38.800	44.078	
38.900	45.198	
39.000	48.083	
39.100	35.304	
39.200	37.634	
39.300	36.315	
39.400	26.360	
39.500	43.395	
39.600	46.480	
39.700	31.324	
39.800	62.291	
39.900	30.694	
40.000	33.245	
40.100	34.889	
40.200	44.444	
40.300	43.265	
40.400	21.595	
40.500	40.800	
40.600	33.729	
40.700	38.491	
40.800	40.019	
40.900	25.178	
41.000	55.094	
41.100	21.480	
41.200	32.197	
41.300	55.318	
41.400	21.890	
41.500	38.249	
41.600	48.233	
41.700	49.742	
41.800	30.331	
41.900	25.861	
42.000	35.913	
42.100	32.642	
42.200	43.097	
42.300	43.349	
42.400	24.810	
42.500	31.090	
42.600	35.285	
42.700	32.543	
42.800	23.115	
42.900	29.898	
43.000	29.796	
43.100	48.298	
43.200	42.590	
43.300	38.661	
43.400	39.979	
43.500	27.336	
43.600	35.627	
43.700	34.803	
43.800	40.831	
43.900	34.226	
44.000	35.637	
44.100	30.416	
44.200	38.409	
44.300	31.248	
44.400	31.053	
44.500	34.815	
44.600	19.020	
44.700	30.892	
44.800	40.546	
44.900	28.913	
45.000	26.123	
45.100	36.596	
45.200	42.830	
45.300	46.541	
45.400	39.122	
45.500	36.789	
45.600	29.705	
45.700	23.650	
45.800	28.131	
45.900	24.406	
46.000	27.791	
46.100	40.660	
46.200	24.995	
46.300	39.016	
46.400	47.161	
46.500	23.722	
46.600	34.052	
46.700	35.925	
46.800	22.967	
46.900	32.917	
47.000	17.671	
47.100	42.946	
47.200	32.242	
47.300	21.897	
47.400	43.693	
47.500	18.066	
47.600	36.462	
47.700	23.352	
47.800	29.212	
47.900	28.767	
48.000	36.897	
48.100	15.641	
48.200	41.516	
48.300	31.243	
48.400	31.104	
48.500	21.818	
48.600	38.511	
48.700	23.350	
48.800	23.920	
48.900	27.674	
49.000	22.580	
49.100	43.829	
49.200	28.359	
49.300	50.932	
49.400	27.794	
49.500	18.001	
49.600	12.974	
49.700	30.203	
49.800	44.317	
49.900	19.745	
50.000	31.654	
50.100	27.452	
50.200	26.352	
50.300	15.716	
50.400	22.050	
50.500	19.268	
50.600	21.721	
50.700	29.166	
50.800	36.652	
50.900	45.502	
51.000	10.085	
51.100	16.070	
51.200	52.649	
51.300	19.615	
51.400	29.305	
51.500	21.700	
51.600	45.908	
51.700	24.577	
51.800	1.319	
51.900	26.952	
52.000	20.652	
52.100	17.371	
52.200	20.158	
52.300	31.555	
52.400	23.641	
52.500	23.028	
52.600	26.895	
52.700	22.663	
52.800	22.174	
52.900	18.988	
53.000	8.523	
53.100	42.227	
53.200	23.296	
53.300	25.710	
53.400	7.270	
53.500	21.797	
53.600	14.438	
53.700	23.309	
53.800	29.869	
53.900	28.402	
54.000	24.838	
54.100	21.352	
54.200	15.352	
54.300	25.253	
54.400	15.299	
54.500	19.422	
54.600	30.393	
54.700	21.620	
54.800	18.754	
54.900	20.826	
55.000	18.187	
55.100	18.979	
55.200	38.880	
55.300	22.515	
55.400	20.748	
55.500	21.313	
55.600	11.758	
55.700	18.148	
55.800	32.969	
55.900	20.349	
56.000	23.760	
56.100	29.259	
56.200	9.977	
56.300	16.171	
56.400	25.159	
56.500	25.377	
56.600	25.454	
56.700	26.349	
56.800	11.669	
56.900	10.682	
57.000	31.325	
57.100	11.665	
57.200	27.487	
57.300	10.686	
57.400	12.066	
57.500	32.512	
57.600	35.431	
57.700	28.188	
57.800	16.848	
57.900	11.966	
58.000	25.266	
58.100	8.246	
58.200	43.580	
58.300	23.422	
58.400	11.762	
58.500	8.532	
58.600	27.172	
58.700	27.116	
58.800	14.710	
58.900	51.357	
59.000	23.080	
59.100	23.963	
59.200	12.015	
59.300	24.345	
59.400	24.313	
59.500	27.242	
59.600	23.743	
59.700	26.952	
59.800	28.392	
59.900	15.688	
60.000	21.448	
60.100	19.152	
60.200	21.113	
60.300	20.328	
60.400	18.622	
60.500	29.574	
60.600	18.718	
60.700	24.763	
60.800	23.574	
60.900	10.467	
61.000	10.408	
61.100	25.454	
61.200	33.495	
61.300	21.660	
61.400	33.468	
61.500	25.617	
61.600	13.352	
61.700	27.866	
61.800	25.487	
61.900	6.198	
62.000	31.228	
62.100	22.090	
62.200	30.956	
62.300	26.195	
62.400	16.974	
62.500	29.188	
62.600	11.939	
62.700	24.311	
62.800	25.014	
62.900	19.563	
63.000	16.712	
63.100	-16.002	
63.200	8.522	
63.300	16.270	
63.400	13.966	
63.500	34.999	
63.600	19.525	
63.700	33.462	
63.800	41.694	
63.900	23.621	
64.000	23.259	
64.100	33.706	
64.200	24.509	
64.300	0.353	
64.400	32.037	
64.500	28.885	
64.600	25.107	
64.700	-0.397	
64.800	32.189	
64.900	24.790	
65.000	17.084	
65.100	32.198	
65.200	26.628	
65.300	21.516	
65.400	14.968	
65.500	17.504	
65.600	21.778	
65.700	18.682	
65.800	28.114	
65.900	14.294	
66.000	14.209	
66.100	20.141	
66.200	24.390	
66.300	23.209	
66.400	22.699	
66.500	24.046	
66.600	15.651	
66.700	11.019	
66.800	17.671	
66.900	35.738	
67.000	37.862	
67.100	20.881	
67.200	11.554	
67.300	23.228	
67.400	18.906	
67.500	36.442	
67.600	13.497	
67.700	30.251	
67.800	8.266	
67.900	18.170	
68.000	16.414	
68.100	30.327	
68.200	14.458	
68.300	10.772	
68.400	-1.368	
68.500	7.209	
68.600	22.347	
68.700	41.123	
68.800	7.288	
68.900	42.062	
69.000	6.345	
69.100	26.394	
69.200	19.959	
69.300	37.133	
69.400	10.769	
69.500	3.996	
69.600	17.161	
69.700	30.040	
69.800	19.293	
69.900	18.143	
70.000	13.738	
70.100	20.406	
70.200	7.372	
70.300	23.563	
70.400	11.526	
70.500	13.906	
70.600	34.385	
70.700	30.511	
70.800	16.512	
70.900	36.089	
71.000	9.006	
71.100	5.736	
71.200	32.302	
71.300	20.417	
71.400	46.856	
71.500	7.847	
71.600	5.840	
71.700	22.405	
71.800	32.763	
71.900	28.786	
72.000	15.886	
72.100	26.368	
72.200	19.961	
72.300	25.502	
72.400	11.110	
72.500	38.392	
72.600	28.262	
72.700	23.603	
72.800	32.063	
72.900	4.593	
73.000	15.941	
73.100	38.013	
73.200	22.997	
73.300	1.224	
73.400	36.520	
73.500	24.382	
73.600	9.837	
73.700	20.822	
73.800	35.173	
73.900	22.590	
74.000	30.794	
74.100	15.448	
74.200	23.001	
74.300	18.523	
74.400	3.487	
74.500	37.750	
74.600	18.570	
74.700	6.280	
74.800	8.224	
74.900	16.504	
75.000	33.252	
75.100	30.341	
75.200	24.388	
75.300	15.993	
75.400	19.291	
75.500	12.842	
75.600	31.084	
75.700	26.753	
75.800	9.846	
75.900	18.374	
76.000	29.710	
76.100	30.446	
76.200	24.701	
76.300	27.254	
76.400	1.253	
76.500	5.433	
76.600	13.807	
76.700	36.990	
76.800	29.808	
76.900	23.852	
77.000	28.793	
77.100	18.707	
77.200	14.413	
77.300	36.435	
77.400	14.421	
77.500	10.994	
77.600	19.827	
77.700	20.370	
77.800	27.661	
77.900	14.147	
78.000	22.305	
78.100	34.324	
78.200	25.335	
78.300	20.346	
78.400	28.463	
78.500	27.635	
78.600	16.042	
78.700	19.144	
78.800	4.832	
78.900	27.417	
79.000	12.198	
79.100	23.939	
79.200	28.984	
79.300	27.794	
79.400	5.107	
79.500	39.244	
79.600	12.560	
79.700	21.503	
79.800	23.237	
79.900	25.757	
80.000	15.044	
80.100	14.703	
80.200	24.695	
80.300	20.058	
80.400	14.547	
80.500	14.642	
80.600	35.016	
80.700	24.136	
80.800	20.716	
80.900	30.150	
81.000	12.902	
81.100	27.189	
81.200	31.115	
81.300	18.881	
81.400	23.739	
81.500	14.965	
81.600	30.878	
81.700	25.553	
81.800	20.872	
81.900	17.595	
82.000	23.740	
82.100	30.585	
82.200	24.101	
82.300	10.360	
82.400	37.393	
82.500	16.102	
82.600	35.774	
82.700	15.404	
82.800	25.635	
82.900	17.870	
83.000	14.951	
83.100	22.313	
83.200	34.557	
83.300	30.689	
83.400	26.907	
83.500	14.070	
83.600	26.023	
83.700	7.578	
83.800	37.415	
83.900	-4.259	
84.000	7.987	
84.100	18.460	
84.200	24.045	
84.300	18.093	
84.400	6.407	
84.500	34.884	
84.600	14.544	
84.700	29.371	
84.800	18.355	
84.900	23.552	
85.000	16.827	
85.100	20.324	
85.200	21.056	
85.300	21.742	
85.400	20.503	
85.500	24.124	
85.600	41.518	
85.700	13.188	
85.800	35.195	
85.900	37.930	
86.000	17.830	
86.100	19.941	
86.200	26.322	
86.300	29.546	
86.400	24.892	
86.500	14.104	
86.600	7.597	
86.700	8.845	
86.800	22.477	
86.900	17.735	
87.000	16.770	
87.100	23.542	
87.200	32.014	
87.300	20.604	
87.400	21.383	
87.500	26.151	
87.600	-9.432	
87.700	30.955	
87.800	14.877	
87.900	6.795	
88.000	19.972	
88.100	17.877	
88.200	25.047	
88.300	19.903	
88.400	20.329	
88.500	9.657	
88.600	23.545	
88.700	22.895	
88.800	31.111	
88.900	23.815	
89.000	22.439	
89.100	11.938	
89.200	12.238	
89.300	9.564	
89.400	37.144	
89.500	34.623	
89.600	9.408	
89.700	23.556	
89.800	21.335	
89.900	32.865	
90.000	27.182	
90.100	23.733	
90.200	29.468	
90.300	6.789	
90.400	14.621	
90.500	23.223	
90.600	12.522	
90.700	29.245	
90.800	21.082	
90.900	32.322	
91.000	-2.072	
91.100	17.505	
91.200	26.327	
91.300	3.220	
91.400	27.764	
91.500	4.425	
91.600	-4.670	
91.700	12.815	
91.800	6.975	
91.900	15.737	
92.000	28.317	
92.100	11.401	
92.200	17.471	
92.300	13.039	
92.400	5.731	
92.500	8.863	
92.600	28.586	
92.700	20.414	
92.800	1.696	
92.900	14.330	
93.000	13.783	
93.100	-1.216	
93.200	-2.709	
93.300	10.900	
93.400	12.088	
93.500	8.332	
93.600	4.727	
93.700	10.734	
93.800	19.174	
93.900	13.450	
94.000	2.882	
94.100	12.702	
94.200	-9.142	
94.300	3.945	
94.400	-1.531	
94.500	5.468	
94.600	-3.940	
94.700	-3.384	
94.800	4.711	
94.900	-15.669	
95.000	27.824	
95.100	12.359	
95.200	11.405	
95.300	-2.787	
95.400	5.508	
95.500	14.032	
95.600	-3.381	
95.700	4.015	
95.800	5.639	
95.900	-0.571	
96.000	-7.087	
96.100	4.707	
96.200	10.307	
96.300	-11.023	
96.400	-11.297	
96.500	-21.402	
96.600	2.213	
96.700	4.063	
96.800	-7.007	
96.900	-17.520	
97.000	-7.104	
97.100	-8.770	
97.200	-11.297	
97.300	-10.860	
97.400	-2.099	
97.500	-15.216	
97.600	-1.243	
97.700	-8.175	
97.800	-7.674	
97.900	-22.719	
98.000	-2.365	
98.100	-3.144	
98.200	0.742	
98.300	-12.596	
98.400	-8.211	
98.500	-6.063	
98.600	-15.322	
98.700	-11.400	
98.800	-16.290	
98.900	-26.371	
99.000	-5.135	
99.100	-1.153	
99.200	5.949	
99.300	-18.160	
99.400	-10.010	
99.500	9.113	
99.600	-18.078	
99.700	-16.857	
99.800	-0.758	
99.900	-2.618	
100.000	4.948	
100.100	-14.165	
100.200	-6.850	
100.300	-5.467	
100.400	-20.049	
100.500	1.396	
100.600	2.405	
100.700	-14.826	
100.800	-12.520	
100.900	-14.999	
101.000	-2.916	
101.100	-6.695	
101.200	-8.259	
101.300	-9.487	
101.400	9.165	
101.500	-20.187	
101.600	-1.723	
101.700	-11.448	
101.800	-26.686	
101.900	-13.447	
102.000	-22.952	
102.100	8.629	
102.200	-11.039	
102.300	-17.014	
102.400	-12.543	
102.500	12.796	
102.600	11.385	
102.700	4.724	
102.800	-16.055	
102.900	-10.261	
103.000	-17.745	
103.100	-9.400	
103.200	-0.788	
103.300	2.259	
103.400	-8.926	
103.500	-0.585	
103.600	-1.728	
103.700	-2.317	
103.800	-6.400	
103.900	-13.827	
104.000	-7.655	
104.100	-8.540	
104.200	-7.415	
104.300	-30.759	
104.400	13.434	
104.500	-2.642	
104.600	-1.502	
104.700	-13.105	
104.800	-7.235	
104.900	-6.933	
105.000	0.284	
105.100	-18.936	
105.200	0.910	
105.300	6.033	
105.400	-2.877	
105.500	1.151	
105.600	-1.491	
105.700	-7.876	
105.800	-12.522	
105.900	-14.300	
106.000	-8.985	
106.100	-15.379	
106.200	0.151	
106.300	6.598	
106.400	-2.022	
106.500	-8.165	
106.600	-6.357	
106.700	-2.872	
106.800	4.240	
106.900	-7.580	
107.000	5.678	
107.100	-8.580	
107.200	2.541	
107.300	9.065	
107.400	-2.498	
107.500	-7.054	
107.600	-2.873	
107.700	-5.407	
107.800	-1.086	
107.900	-4.588	
108.000	-10.303	
108.100	-13.358	
108.200	5.910	
108.300	17.726	
108.400	-17.786	
108.500	-8.820	
108.600	-1.768	
108.700	-9.182	
108.800	-0.849	
108.900	7.585	
109.000	0.185	
109.100	-10.561	
109.200	4.535	
109.300	-2.303	
109.400	-8.151	
109.500	-0.022	
109.600	-6.840	
109.700	-7.148	
109.800	2.989	
109.900	4.453	
110.000	9.814	
110.100	-15.358	
110.200	-11.817	
110.300	-0.198	
110.400	-4.005	
110.500	8.759	
110.600	-15.014	
110.700	-14.496	
110.800	-14.679	
110.900	10.261	
111.000	3.602	
111.100	-19.271	
111.200	-9.860	
111.300	-0.110	
111.400	-5.459	
111.500	-6.404	
111.600	12.881	
111.700	10.607	
111.800	3.611	
111.900	-5.294	
112.000	4.736	
112.100	-0.722	
112.200	-2.994	
112.300	6.226	
112.400	-0.889	
112.500	10.439	
112.600	-4.962	
112.700	0.768	
112.800	1.145	
112.900	-8.195	
113.000	3.542	
113.100	-1.658	
113.200	-3.974	
113.300	-4.572	
113.400	9.242	
113.500	6.598	
113.600	-16.913	
113.700	0.411	
113.800	4.558	
113.900	-8.662	
114.000	1.720	
114.100	8.615	
114.200	-9.667	
114.300	-6.370	
114.400	-14.371	
114.500	5.931	
114.600	-7.905	
114.700	-2.861	
114.800	8.559	
114.900	3.296	
115.000	-3.516	
115.100	3.192	
115.200	-2.601	
115.300	1.001	
115.400	-17.961	
115.500	8.958	
115.600	-4.509	
115.700	7.205	
115.800	2.886	
115.900	12.553	
116.000	-5.898	
116.100	-0.194	
116.200	-2.009	
116.300	11.367	
116.400	5.046	
116.500	-8.204	
116.600	-5.010	
116.700	-10.181	
116.800	-7.500	
116.900	5.641	
117.000	4.628	
117.100	3.612	
117.200	-0.125	
117.300	5.005	
117.400	-8.402	
117.500	0.273	
117.600	-19.665	
117.700	0.748	
117.800	-3.793	
117.900	-2.289	
118.000	-6.303	
118.100	9.562	
118.200	-3.988	
118.300	7.385	
118.400	7.345	
118.500	2.032	
118.600	-4.123	
118.700	7.719	
118.800	16.098	
118.900	2.341	
119.000	-4.937	
119.100	-23.985	
119.200	-9.474	
119.300	-10.309	
119.400	15.003	
119.500	19.811	
119.600	14.116	
119.700	0.515	
119.800	-9.062	
119.900	-13.200	
120.000	-7.600	
120.100	4.963	
120.200	-2.933	
120.300	3.767	
120.400	-2.254	
120.500	4.401	
120.600	3.716	
120.700	3.133	
120.800	13.174	
120.900	6.520	
121.000	10.579	
121.100	-10.836	
121.200	14.457	
121.300	-9.682	
121.400	2.997	
121.500	9.630	
121.600	-2.988	
121.700	4.371	
121.800	14.436	
121.900	2.753	
122.000	4.819	
122.100	-15.056	
122.200	-11.809	
122.300	11.314	
122.400	6.686	
122.500	-14.518	
122.600	-7.619	
122.700	3.810	
122.800	4.471	
122.900	-10.347	
123.000	14.093	
123.100	2.804	
123.200	-5.887	
123.300	6.856	
123.400	-7.019	
123.500	15.991	
123.600	-1.723	
123.700	-4.317	
123.800	-6.264	
123.900	2.303	
124.000	7.763	
124.100	1.523	
124.200	3.934	
124.300	12.819	
124.400	1.036	
124.500	22.563	
124.600	-6.676	
