time /s	I /nA	
0.100	60.400	
0.200	17.525	
0.300	31.298	
0.400	30.607	
0.500	35.267	
0.600	11.527	
0.700	29.454	
0.800	23.704	
0.900	16.378	
1.000	18.242	
1.100	29.632	
1.200	12.684	
1.300	36.012	
1.400	20.716	
1.500	31.852	
1.600	1.860	
1.700	32.046	
1.800	17.165	
1.900	10.066	
2.000	48.575	
2.100	28.341	
2.200	12.870	
2.300	19.480	
2.400	31.410	
2.500	21.967	
2.600	14.916	
2.700	37.740	
2.800	27.172	
2.900	17.568	
3.000	20.726	
3.100	7.966	
3.200	37.278	
3.300	32.321	
3.400	17.720	
3.500	32.749	
3.600	15.752	
3.700	13.134	
3.800	16.878	
3.900	32.313	
4.000	19.381	
4.100	30.207	
4.200	25.793	
4.300	32.675	
4.400	20.012	
4.500	28.326	
4.600	20.558	
4.700	22.145	
4.800	39.563	
4.900	34.433	
5.000	34.184	
5.100	18.386	
5.200	25.670	
5.300	20.710	
5.400	19.487	
5.500	19.383	
5.600	28.861	
5.700	22.197	
5.800	8.388	
5.900	19.982	
6.000	38.590	
6.100	18.034	
6.200	32.337	
6.300	25.666	
6.400	21.046	
6.500	30.439	
6.600	28.535	
6.700	16.863	
6.800	34.077	
6.900	37.069	
7.000	30.904	
7.100	14.243	
7.200	38.830	
7.300	24.674	
7.400	23.920	
7.500	38.433	
7.600	5.180	
7.700	38.181	
7.800	17.661	
7.900	24.767	
8.000	19.660	
8.100	32.447	
8.200	36.739	
8.300	25.514	
8.400	25.583	
8.500	16.518	
8.600	33.472	
8.700	42.165	
8.800	23.140	
8.900	35.461	
9.000	26.309	
9.100	26.841	
9.200	21.944	
9.300	30.375	
9.400	22.769	
9.500	30.987	
9.600	21.181	
9.700	33.431	
9.800	17.112	
9.900	33.841	
10.000	36.995	
10.100	31.295	
10.200	43.573	
10.300	28.213	
10.400	21.010	
10.500	26.440	
10.600	31.753	
10.700	25.263	
10.800	32.195	
10.900	57.427	
11.000	17.974	
11.100	19.982	
11.200	22.504	
11.300	44.856	
11.400	31.183	
11.500	23.329	
11.600	24.195	
11.700	33.836	
11.800	42.965	
11.900	29.753	
12.000	23.428	
12.100	35.415	
12.200	34.387	
12.300	12.948	
12.400	42.361	
12.500	33.956	
12.600	49.573	
12.700	19.052	
12.800	19.225	
12.900	32.471	
13.000	30.611	
13.100	30.557	
13.200	31.483	
13.300	22.312	
13.400	23.768	
13.500	31.886	
13.600	34.795	
13.700	21.107	
13.800	45.215	
13.900	43.994	
14.000	28.218	
14.100	12.421	
14.200	17.232	
14.300	27.201	
14.400	31.344	
14.500	35.836	
14.600	35.842	
14.700	23.317	
14.800	40.435	
14.900	28.057	
15.000	34.064	
15.100	16.703	
15.200	27.613	
15.300	29.632	
15.400	30.342	
15.500	34.000	
15.600	42.939	
15.700	40.601	
15.800	15.151	
15.900	32.353	
16.000	29.595	
16.100	30.691	
16.200	38.385	
16.300	22.964	
16.400	33.718	
16.500	26.366	
16.600	22.091	
16.700	28.263	
16.800	5.152	
16.900	9.120	
17.000	33.788	
17.100	34.506	
17.200	22.954	
17.300	16.147	
17.400	16.426	
17.500	8.006	
17.600	27.237	
17.700	38.478	
17.800	16.982	
17.900	21.347	
18.000	42.711	
18.100	27.126	
18.200	36.628	
18.300	17.718	
18.400	20.970	
18.500	28.776	
18.600	23.251	
18.700	11.228	
18.800	18.003	
18.900	29.335	
19.000	15.890	
19.100	36.009	
19.200	26.162	
19.300	29.259	
19.400	33.027	
19.500	24.264	
19.600	26.716	
19.700	22.764	
19.800	26.262	
19.900	29.087	
20.000	33.721	
20.100	22.438	
20.200	23.536	
20.300	22.080	
20.400	9.782	
20.500	25.633	
20.600	24.398	
20.700	32.179	
20.800	33.834	
20.900	20.697	
21.000	16.229	
21.100	13.981	
21.200	35.778	
21.300	30.575	
21.400	24.445	
21.500	36.927	
21.600	16.927	
21.700	23.868	
21.800	18.843	
21.900	27.876	
22.000	25.484	
22.100	38.585	
22.200	13.280	
22.300	15.660	
22.400	26.417	
22.500	31.643	
22.600	29.919	
22.700	44.115	
22.800	30.112	
22.900	12.176	
23.000	39.048	
23.100	23.398	
23.200	25.148	
23.300	-2.372	
23.400	27.972	
23.500	21.980	
23.600	22.607	
23.700	24.859	
23.800	32.308	
23.900	23.661	
24.000	33.825	
24.100	28.717	
24.200	29.763	
24.300	16.394	
24.400	26.791	
24.500	17.588	
24.600	24.460	
24.700	20.378	
24.800	4.523	
24.900	19.138	
25.000	18.146	
25.100	21.622	
25.200	24.635	
25.300	23.975	
25.400	43.061	
25.500	19.887	
25.600	26.110	
25.700	16.576	
25.800	24.307	
25.900	23.848	
26.000	16.115	
26.100	25.858	
26.200	9.980	
26.300	32.799	
26.400	39.462	
26.500	11.897	
26.600	20.287	
26.700	28.927	
26.800	20.417	
26.900	7.451	
27.000	30.099	
27.100	30.523	
27.200	16.412	
27.300	6.718	
27.400	14.315	
27.500	17.839	
27.600	13.728	
27.700	14.213	
27.800	22.743	
27.900	34.612	
28.000	31.744	
28.100	29.644	
28.200	27.312	
28.300	35.492	
28.400	24.881	
28.500	16.012	
28.600	7.410	
28.700	29.759	
28.800	22.131	
28.900	22.785	
29.000	27.787	
29.100	17.843	
29.200	13.719	
29.300	16.299	
29.400	25.392	
29.500	10.898	
29.600	20.614	
29.700	32.555	
29.800	22.195	
29.900	20.825	
30.000	22.555	
30.100	35.099	
30.200	21.716	
30.300	42.926	
30.400	10.549	
30.500	24.711	
30.600	48.755	
30.700	26.774	
30.800	20.047	
30.900	8.606	
31.000	33.431	
31.100	33.905	
31.200	36.894	
31.300	24.014	
31.400	13.360	
31.500	32.019	
31.600	12.247	
31.700	29.440	
31.800	33.334	
31.900	30.038	
32.000	36.718	
32.100	27.185	
32.200	10.404	
32.300	20.817	
32.400	24.173	
32.500	32.865	
32.600	31.856	
32.700	26.941	
32.800	36.185	
32.900	26.065	
33.000	31.648	
33.100	33.516	
33.200	18.787	
33.300	26.720	
33.400	20.101	
33.500	34.054	
33.600	43.602	
33.700	23.972	
33.800	17.351	
33.900	56.339	
34.000	17.169	
34.100	31.350	
34.200	28.921	
34.300	37.324	
34.400	33.686	
34.500	35.585	
34.600	41.611	
34.700	13.949	
34.800	20.685	
34.900	30.355	
35.000	31.835	
35.100	25.320	
35.200	22.119	
35.300	29.496	
35.400	32.590	
35.500	37.960	
35.600	31.845	
35.700	34.608	
35.800	21.772	
35.900	19.027	
36.000	22.299	
36.100	17.950	
36.200	28.955	
36.300	29.772	
36.400	26.591	
36.500	35.686	
36.600	21.124	
36.700	26.521	
36.800	41.987	
36.900	8.186	
37.000	21.865	
37.100	16.931	
37.200	21.122	
37.300	29.729	
37.400	25.166	
37.500	17.989	
37.600	20.184	
37.700	28.430	
37.800	27.212	
37.900	15.414	
38.000	40.899	
38.100	33.520	
38.200	7.544	
38.300	31.153	
38.400	27.668	
38.500	28.381	
38.600	27.903	
38.700	34.673	
38.800	25.997	
38.900	39.326	
39.000	34.339	
39.100	10.770	
39.200	12.704	
39.300	29.160	
39.400	37.840	
39.500	24.870	
39.600	18.488	
39.700	26.033	
39.800	42.814	
39.900	19.874	
40.000	29.235	
40.100	15.193	
40.200	38.063	
40.300	38.944	
40.400	17.633	
40.500	41.841	
40.600	51.648	
40.700	17.368	
40.800	31.612	
40.900	34.986	
41.000	14.515	
41.100	17.784	
41.200	37.399	
41.300	18.296	
41.400	42.152	
41.500	7.368	
41.600	31.466	
41.700	46.761	
41.800	25.655	
41.900	26.172	
42.000	26.438	
42.100	29.088	
42.200	15.605	
42.300	36.100	
42.400	21.375	
42.500	34.952	
42.600	38.143	
42.700	29.133	
42.800	28.711	
42.900	29.676	
43.000	27.027	
43.100	27.995	
43.200	37.253	
43.300	20.666	
43.400	26.167	
43.500	30.245	
43.600	33.042	
43.700	11.922	
43.800	39.822	
43.900	29.033	
44.000	17.020	
44.100	36.624	
44.200	28.567	
44.300	31.379	
44.400	33.227	
44.500	22.839	
44.600	18.351	
44.700	40.068	
44.800	27.717	
44.900	9.895	
45.000	30.500	
45.100	34.234	
45.200	24.178	
45.300	20.484	
45.400	21.756	
45.500	40.131	
45.600	27.682	
45.700	17.917	
45.800	34.566	
45.900	27.883	
46.000	32.305	
46.100	9.057	
46.200	42.809	
46.300	14.931	
46.400	20.892	
46.500	34.322	
46.600	8.899	
46.700	27.407	
46.800	37.421	
46.900	14.511	
47.000	1.303	
47.100	26.296	
47.200	45.660	
47.300	18.166	
47.400	32.013	
47.500	23.896	
47.600	20.800	
47.700	35.184	
47.800	24.535	
47.900	14.367	
48.000	14.079	
48.100	25.991	
48.200	29.126	
48.300	34.906	
48.400	26.170	
48.500	20.886	
48.600	19.353	
48.700	14.895	
48.800	36.905	
48.900	33.751	
49.000	31.041	
49.100	18.011	
49.200	32.785	
49.300	15.753	
49.400	26.202	
49.500	18.613	
49.600	24.573	
49.700	29.240	
49.800	17.944	
49.900	14.463	
50.000	25.211	
50.100	22.967	
50.200	28.116	
50.300	39.614	
50.400	-8.118	
50.500	35.033	
50.600	31.613	
50.700	38.757	
50.800	25.095	
50.900	22.635	
51.000	16.693	
51.100	27.172	
51.200	23.191	
51.300	37.711	
51.400	15.275	
51.500	39.710	
51.600	30.494	
51.700	28.070	
51.800	31.864	
51.900	15.089	
52.000	17.496	
52.100	22.557	
52.200	17.483	
52.300	32.413	
52.400	9.821	
52.500	22.466	
52.600	27.411	
52.700	8.896	
52.800	28.167	
52.900	20.921	
53.000	35.917	
53.100	36.635	
53.200	8.502	
53.300	24.674	
53.400	18.821	
53.500	18.086	
53.600	27.409	
53.700	16.522	
53.800	27.689	
53.900	22.932	
54.000	23.715	
54.100	45.053	
54.200	16.730	
54.300	20.797	
54.400	33.464	
54.500	40.281	
54.600	26.557	
54.700	15.869	
54.800	26.308	
54.900	26.169	
55.000	30.168	
55.100	11.598	
55.200	23.887	
55.300	31.000	
55.400	33.093	
55.500	42.145	
55.600	33.487	
55.700	18.543	
55.800	21.128	
55.900	22.001	
56.000	33.738	
56.100	9.058	
56.200	27.431	
56.300	34.632	
56.400	34.762	
56.500	25.172	
56.600	16.699	
56.700	52.678	
56.800	26.462	
56.900	18.032	
57.000	37.822	
57.100	32.048	
57.200	25.258	
57.300	28.026	
57.400	22.268	
57.500	12.459	
57.600	43.117	
57.700	25.833	
57.800	32.548	
57.900	14.000	
58.000	31.446	
58.100	27.123	
58.200	8.389	
58.300	27.000	
58.400	18.303	
58.500	36.295	
58.600	34.244	
58.700	27.904	
58.800	15.772	
58.900	38.990	
59.000	25.358	
59.100	41.616	
59.200	16.271	
59.300	16.929	
59.400	33.273	
59.500	39.343	
59.600	30.938	
59.700	32.333	
59.800	28.256	
59.900	24.183	
60.000	12.818	
60.100	38.079	
60.200	30.096	
60.300	20.443	
60.400	28.416	
60.500	28.922	
60.600	31.578	
60.700	47.426	
60.800	27.191	
60.900	15.334	
61.000	39.499	
61.100	33.551	
61.200	26.058	
61.300	23.696	
61.400	31.507	
61.500	39.467	
61.600	42.087	
61.700	33.250	
61.800	21.489	
61.900	20.577	
62.000	27.551	
62.100	39.633	
62.200	42.511	
62.300	25.217	
62.400	35.388	
62.500	18.143	
62.600	27.499	
62.700	17.317	
62.800	36.226	
62.900	38.358	
63.000	40.194	
63.100	31.372	
63.200	34.759	
63.300	42.147	
63.400	18.258	
63.500	47.343	
63.600	21.770	
63.700	13.120	
63.800	20.320	
63.900	14.861	
64.000	37.086	
64.100	24.888	
64.200	30.598	
64.300	36.679	
64.400	44.059	
64.500	26.649	
64.600	17.698	
64.700	10.264	
64.800	44.579	
64.900	38.299	
65.000	26.554	
65.100	13.543	
65.200	27.814	
65.300	27.865	
65.400	35.852	
65.500	30.571	
65.600	26.157	
65.700	26.553	
65.800	26.170	
65.900	13.274	
66.000	31.711	
66.100	40.448	
66.200	26.591	
66.300	37.544	
66.400	21.750	
66.500	39.424	
66.600	13.561	
66.700	24.815	
66.800	10.836	
66.900	25.411	
67.000	45.589	
67.100	9.744	
67.200	31.445	
67.300	2.378	
67.400	29.254	
67.500	24.984	
67.600	24.353	
67.700	31.380	
67.800	32.758	
67.900	12.793	
68.000	25.903	
68.100	33.674	
68.200	24.211	
68.300	28.849	
68.400	21.808	
68.500	53.078	
68.600	20.399	
68.700	28.607	
68.800	20.661	
68.900	31.892	
69.000	13.904	
69.100	24.121	
69.200	29.777	
69.300	25.006	
69.400	31.065	
69.500	35.685	
69.600	17.699	
69.700	27.210	
69.800	17.520	
69.900	37.829	
70.000	22.943	
70.100	6.375	
70.200	32.772	
70.300	22.869	
70.400	19.191	
70.500	45.336	
70.600	21.235	
70.700	24.470	
70.800	37.822	
70.900	23.832	
71.000	13.326	
71.100	34.213	
71.200	39.403	
71.300	19.152	
71.400	25.914	
71.500	31.200	
71.600	39.088	
71.700	37.094	
71.800	32.570	
71.900	34.403	
72.000	24.544	
72.100	13.217	
72.200	34.959	
72.300	3.272	
72.400	-5.189	
72.500	8.706	
72.600	25.549	
72.700	31.916	
72.800	40.675	
72.900	20.100	
73.000	22.738	
73.100	24.142	
73.200	44.229	
73.300	34.418	
73.400	38.887	
73.500	8.027	
73.600	19.404	
73.700	35.184	
73.800	25.338	
73.900	25.999	
74.000	18.624	
74.100	30.306	
74.200	14.786	
74.300	20.590	
74.400	18.259	
74.500	25.940	
74.600	31.693	
74.700	19.959	
74.800	26.182	
74.900	22.106	
75.000	23.898	
75.100	27.486	
75.200	33.784	
75.300	19.058	
75.400	26.423	
75.500	28.623	
75.600	29.949	
75.700	25.571	
75.800	21.020	
75.900	19.402	
76.000	41.392	
76.100	14.040	
76.200	31.193	
76.300	43.753	
76.400	21.620	
76.500	17.829	
76.600	26.689	
76.700	18.594	
76.800	12.226	
76.900	36.427	
77.000	40.252	
77.100	25.556	
77.200	22.748	
77.300	20.666	
77.400	43.199	
77.500	40.151	
77.600	27.817	
77.700	-2.489	
77.800	30.173	
77.900	24.716	
78.000	24.118	
78.100	23.086	
78.200	8.749	
78.300	26.053	
78.400	42.796	
78.500	31.998	
78.600	22.518	
78.700	34.212	
78.800	31.901	
78.900	19.447	
79.000	21.482	
79.100	27.648	
79.200	13.619	
79.300	15.840	
79.400	26.966	
79.500	42.838	
79.600	26.958	
79.700	25.004	
79.800	27.708	
79.900	14.206	
80.000	35.247	
80.100	34.020	
80.200	25.020	
80.300	22.822	
80.400	22.137	
80.500	18.695	
80.600	18.000	
80.700	28.252	
80.800	18.004	
80.900	29.567	
81.000	24.511	
81.100	18.551	
81.200	13.788	
81.300	23.623	
81.400	38.008	
81.500	31.790	
81.600	37.783	
81.700	18.774	
81.800	12.837	
81.900	26.659	
82.000	29.420	
82.100	31.074	
82.200	25.892	
82.300	28.192	
82.400	31.529	
82.500	17.250	
82.600	5.676	
82.700	33.751	
82.800	30.853	
82.900	20.413	
83.000	39.648	
83.100	28.444	
83.200	21.586	
83.300	28.056	
83.400	23.170	
83.500	37.449	
83.600	31.985	
83.700	30.295	
83.800	31.073	
83.900	19.840	
84.000	31.759	
84.100	23.225	
84.200	32.682	
84.300	19.352	
84.400	43.231	
84.500	26.187	
84.600	34.244	
84.700	22.698	
84.800	27.788	
84.900	22.871	
85.000	32.134	
85.100	35.674	
85.200	40.851	
85.300	33.481	
85.400	27.640	
85.500	23.167	
85.600	23.718	
85.700	16.260	
85.800	22.315	
85.900	25.932	
86.000	31.648	
86.100	43.071	
86.200	24.386	
86.300	16.027	
86.400	39.857	
86.500	35.327	
86.600	20.256	
86.700	35.363	
86.800	25.928	
86.900	22.458	
87.000	12.652	
87.100	22.157	
87.200	46.772	
87.300	24.349	
87.400	31.551	
87.500	21.091	
87.600	30.352	
87.700	40.594	
87.800	30.922	
87.900	15.142	
88.000	34.162	
88.100	36.395	
88.200	6.954	
88.300	27.217	
88.400	37.345	
88.500	27.365	
88.600	31.067	
88.700	13.007	
88.800	23.533	
88.900	15.209	
89.000	31.929	
89.100	41.972	
89.200	15.694	
89.300	33.526	
89.400	6.453	
89.500	38.291	
89.600	34.202	
89.700	49.412	
89.800	28.996	
89.900	42.252	
90.000	33.679	
90.100	19.000	
90.200	6.084	
90.300	37.812	
90.400	36.112	
90.500	10.189	
90.600	25.030	
90.700	32.893	
90.800	29.209	
90.900	-0.778	
91.000	31.772	
91.100	32.464	
91.200	33.157	
91.300	15.948	
91.400	14.056	
91.500	27.954	
91.600	20.364	
91.700	30.056	
91.800	37.976	
91.900	30.902	
92.000	13.081	
92.100	33.157	
92.200	43.976	
92.300	20.629	
92.400	32.120	
92.500	10.465	
92.600	34.203	
92.700	30.522	
92.800	32.090	
92.900	14.054	
93.000	30.753	
93.100	28.225	
93.200	25.865	
93.300	32.871	
93.400	16.793	
93.500	23.475	
93.600	20.493	
93.700	22.708	
93.800	5.528	
93.900	27.450	
94.000	25.899	
94.100	30.835	
94.200	25.061	
94.300	26.292	
94.400	17.593	
94.500	8.787	
94.600	22.141	
94.700	11.876	
94.800	40.157	
94.900	27.932	
95.000	29.065	
95.100	32.650	
95.200	4.111	
95.300	31.340	
95.400	32.525	
95.500	25.583	
95.600	28.753	
95.700	5.968	
95.800	25.086	
95.900	13.332	
96.000	14.949	
96.100	23.412	
96.200	29.896	
96.300	15.657	
96.400	23.806	
96.500	17.603	
96.600	47.638	
96.700	6.872	
96.800	19.692	
96.900	25.338	
97.000	22.156	
97.100	16.343	
97.200	19.641	
97.300	16.191	
97.400	21.959	
97.500	12.681	
97.600	21.484	
97.700	20.380	
97.800	22.635	
97.900	20.624	
98.000	24.441	
98.100	5.429	
98.200	22.239	
98.300	21.477	
98.400	15.609	
98.500	35.750	
98.600	33.689	
98.700	16.776	
98.800	4.306	
98.900	32.327	
99.000	19.874	
99.100	33.545	
99.200	33.629	
99.300	25.513	
99.400	22.925	
99.500	29.192	
99.600	22.912	
99.700	35.604	
99.800	2.187	
99.900	7.947	
100.000	16.742	
100.100	30.669	
100.200	25.330	
100.300	18.066	
100.400	1.227	
100.500	31.149	
100.600	24.191	
100.700	15.470	
100.800	30.440	
100.900	8.886	
101.000	38.983	
101.100	24.522	
101.200	18.469	
101.300	25.456	
101.400	8.393	
101.500	29.692	
101.600	28.044	
101.700	25.470	
101.800	3.209	
101.900	21.407	
102.000	19.166	
102.100	7.078	
102.200	27.052	
102.300	41.741	
102.400	24.835	
102.500	14.946	
102.600	22.344	
102.700	18.232	
102.800	8.485	
102.900	29.414	
103.000	4.636	
103.100	21.521	
103.200	21.035	
103.300	12.172	
103.400	36.349	
103.500	12.316	
103.600	13.117	
103.700	27.463	
103.800	34.946	
103.900	17.046	
104.000	17.793	
104.100	25.630	
104.200	23.174	
104.300	25.192	
104.400	20.004	
104.500	26.350	
104.600	20.328	
104.700	14.932	
104.800	0.930	
104.900	16.095	
105.000	25.725	
105.100	30.420	
105.200	4.710	
105.300	24.892	
105.400	28.212	
105.500	29.504	
105.600	26.352	
105.700	29.989	
105.800	21.060	
105.900	28.540	
106.000	28.270	
106.100	24.431	
106.200	22.213	
106.300	13.235	
106.400	36.839	
106.500	11.295	
106.600	25.158	
106.700	31.630	
106.800	15.605	
106.900	29.921	
107.000	27.934	
107.100	21.497	
107.200	28.936	
107.300	16.591	
107.400	9.719	
107.500	17.854	
107.600	18.334	
107.700	26.564	
107.800	21.173	
107.900	31.983	
108.000	20.444	
108.100	23.957	
108.200	15.236	
108.300	19.321	
108.400	15.276	
108.500	8.982	
108.600	13.130	
108.700	21.360	
108.800	17.105	
108.900	19.419	
109.000	32.885	
109.100	29.192	
109.200	9.148	
109.300	16.782	
109.400	30.234	
109.500	24.522	
109.600	21.150	
109.700	35.694	
109.800	31.216	
109.900	10.993	
110.000	30.851	
110.100	17.982	
110.200	23.678	
110.300	42.546	
110.400	14.759	
110.500	-0.069	
110.600	29.068	
110.700	21.052	
110.800	33.623	
110.900	27.999	
111.000	33.018	
111.100	22.818	
111.200	20.079	
111.300	22.399	
111.400	25.323	
111.500	9.836	
111.600	38.559	
111.700	25.886	
111.800	1.194	
111.900	18.783	
112.000	36.845	
112.100	31.620	
112.200	29.759	
112.300	15.404	
112.400	11.809	
112.500	28.818	
112.600	35.332	
112.700	17.709	
112.800	20.945	
112.900	14.115	
113.000	28.303	
113.100	44.161	
113.200	35.225	
113.300	31.299	
113.400	49.088	
113.500	17.895	
113.600	16.304	
113.700	28.703	
113.800	27.238	
113.900	29.066	
114.000	23.274	
114.100	15.484	
114.200	46.403	
114.300	18.799	
114.400	36.005	
114.500	26.134	
114.600	10.828	
114.700	38.064	
114.800	14.659	
114.900	24.146	
115.000	28.487	
115.100	21.989	
115.200	20.866	
115.300	42.238	
115.400	7.664	
115.500	19.523	
115.600	25.935	
115.700	26.042	
115.800	13.046	
115.900	20.283	
116.000	26.509	
116.100	42.913	
116.200	25.232	
116.300	21.861	
116.400	28.600	
116.500	24.701	
116.600	39.519	
116.700	33.850	
116.800	28.280	
116.900	17.475	
117.000	36.296	
117.100	14.143	
117.200	36.060	
117.300	8.723	
117.400	25.284	
117.500	32.389	
117.600	35.368	
117.700	37.385	
117.800	10.395	
117.900	27.545	
118.000	46.981	
118.100	26.480	
118.200	23.085	
118.300	20.543	
118.400	16.819	
118.500	19.003	
118.600	39.652	
118.700	26.345	
118.800	21.914	
118.900	5.280	
119.000	25.469	
119.100	31.684	
119.200	44.839	
119.300	20.289	
119.400	31.965	
119.500	33.391	
119.600	9.562	
119.700	35.050	
119.800	23.844	
119.900	21.727	
120.000	19.793	
120.100	19.593	
120.200	42.432	
120.300	22.232	
120.400	28.910	
120.500	17.097	
120.600	21.196	
120.700	28.571	
120.800	12.158	
120.900	20.727	
121.000	18.674	
121.100	32.163	
121.200	19.419	
121.300	14.652	
121.400	16.973	
121.500	33.081	
121.600	9.623	
121.700	33.279	
121.800	29.708	
121.900	30.411	
122.000	29.354	
122.100	34.320	
122.200	20.852	
122.300	34.221	
122.400	6.225	
122.500	23.847	
122.600	25.694	
122.700	28.387	
122.800	39.356	
122.900	13.744	
123.000	34.772	
123.100	30.163	
123.200	40.094	
123.300	15.111	
123.400	27.334	
123.500	24.197	
123.600	8.537	
123.700	23.410	
123.800	17.232	
123.900	11.353	
124.000	6.722	
124.100	35.086	
124.200	14.903	
124.300	24.973	
124.400	29.378	
