time /s	I /nA	E /V
0.100	-12.853	0.100
0.200	9.341	0.100
0.300	-4.763	0.100
0.400	-7.292	0.100
0.500	-3.059	0.100
0.600	-3.623	0.100
0.700	-13.559	0.100
0.800	-31.188	0.100
0.900	17.973	0.100
1.000	-3.662	0.100
1.100	6.855	0.100
1.200	-8.355	0.100
1.300	-11.504	0.100
1.400	-3.104	0.100
1.500	5.017	0.100
1.600	-3.259	0.100
1.700	3.593	0.100
1.800	8.106	0.100
1.900	9.307	0.100
2.000	4.680	0.100
2.100	-4.135	0.100
2.200	3.280	0.100
2.300	-6.791	0.100
2.400	0.084	0.100
2.500	6.887	0.100
2.600	2.215	0.100
2.700	-11.270	0.100
2.800	5.814	0.100
2.900	-1.808	0.100
3.000	-9.328	0.100
3.100	-1.676	0.100
3.200	3.603	0.100
3.300	-1.601	0.100
3.400	2.729	0.100
3.500	2.936	0.100
3.600	-3.227	0.100
3.700	0.563	0.100
3.800	-10.337	0.100
3.900	-8.364	0.100
4.000	5.956	0.100
4.100	-7.936	0.100
4.200	-1.741	0.100
4.300	-5.199	0.100
4.400	2.198	0.100
4.500	-5.839	0.100
4.600	1.448	0.100
4.700	6.632	0.100
4.800	-5.822	0.100
4.900	1.689	0.100
5.000	-3.340	0.100
5.100	4.444	0.100
5.200	-3.542	0.100
5.300	14.624	0.100
5.400	-6.683	0.100
5.500	-10.548	0.100
5.600	-3.409	0.100
5.700	-4.176	0.100
5.800	-15.942	0.100
5.900	8.426	0.100
6.000	-1.448	0.100
6.100	4.584	0.100
6.200	16.767	0.100
6.300	5.478	0.100
6.400	-2.103	0.100
6.500	0.567	0.100
6.600	3.077	0.100
6.700	-3.400	0.100
6.800	3.779	0.100
6.900	-3.238	0.100
7.000	-6.415	0.100
7.100	0.210	0.100
7.200	1.631	0.100
7.300	-9.902	0.100
7.400	-9.448	0.100
7.500	14.474	0.100
7.600	5.147	0.100
7.700	2.930	0.100
7.800	-1.491	0.100
7.900	2.743	0.100
8.000	-16.526	0.100
8.100	7.628	0.100
8.200	-3.994	0.100
8.300	4.188	0.100
8.400	14.257	0.100
8.500	-13.002	0.100
8.600	-3.325	0.100
8.700	-4.400	0.100
8.800	2.034	0.100
8.900	0.937	0.100
9.000	8.214	0.100
9.100	-7.973	0.100
9.200	1.167	0.100
9.300	0.422	0.100
9.400	-7.612	0.100
9.500	-2.296	0.100
9.600	4.357	0.100
9.700	2.167	0.100
9.800	5.132	0.100
9.900	-3.706	0.100
10.000	3.926	0.100
10.100	3.101	0.100
10.200	-5.816	0.100
10.300	-7.204	0.100
10.400	2.281	0.100
10.500	7.793	0.100
10.600	4.737	0.100
10.700	7.928	0.100
10.800	-15.095	0.100
10.900	3.320	0.100
11.000	-8.666	0.100
11.100	2.882	0.100
11.200	3.780	0.100
11.300	5.015	0.100
11.400	-3.168	0.100
11.500	-5.165	0.100
11.600	-0.996	0.100
11.700	-1.353	0.100
11.800	6.660	0.100
11.900	-3.221	0.100
12.000	-0.721	0.100
12.100	-6.595	0.100
12.200	11.887	0.100
12.300	5.534	0.100
12.400	4.641	0.100
12.500	-12.282	0.100
12.600	-5.433	0.100
12.700	11.854	0.100
12.800	27.920	0.100
12.900	1.606	0.100
13.000	-5.347	0.100
13.100	-2.290	0.100
13.200	-2.319	0.100
13.300	3.250	0.100
13.400	-1.586	0.100
13.500	4.947	0.100
13.600	0.615	0.100
13.700	-13.194	0.100
13.800	-9.297	0.100
13.900	1.057	0.100
14.000	-1.348	0.100
14.100	-2.236	0.100
14.200	-11.128	0.100
14.300	3.134	0.100
14.400	1.320	0.100
14.500	8.783	0.100
14.600	-2.157	0.100
14.700	-4.274	0.100
14.800	2.944	0.100
14.900	11.366	0.100
15.000	-4.225	0.100
15.100	-13.780	0.100
15.200	7.308	0.100
15.300	-4.979	0.100
15.400	1.801	0.100
15.500	-1.331	0.100
15.600	-1.859	0.100
15.700	-11.720	0.100
15.800	-5.465	0.100
15.900	3.814	0.100
16.000	-4.511	0.100
16.100	-4.503	0.100
16.200	7.175	0.100
16.300	1.523	0.100
16.400	-5.452	0.100
16.500	4.398	0.100
16.600	10.002	0.100
16.700	-9.158	0.100
16.800	2.533	0.100
16.900	1.571	0.100
17.000	0.074	0.100
17.100	8.396	0.100
17.200	-7.075	0.100
17.300	-11.744	0.100
17.400	10.226	0.100
17.500	-0.391	0.100
17.600	-14.848	0.100
17.700	4.080	0.100
17.800	-8.071	0.100
17.900	1.786	0.100
18.000	0.773	0.100
18.100	7.503	0.100
18.200	-6.582	0.100
18.300	-7.368	0.100
18.400	0.787	0.100
18.500	-0.316	0.100
18.600	-6.060	0.100
18.700	3.951	0.100
18.800	3.137	0.100
18.900	4.817	0.100
19.000	2.400	0.100
19.100	0.844	0.100
19.200	-9.018	0.100
19.300	-11.659	0.100
19.400	10.447	0.100
19.500	2.575	0.100
19.600	12.087	0.100
19.700	13.134	0.100
19.800	-0.861	0.100
19.900	-6.268	0.100
20.000	-2.963	0.100
20.100	-8.642	0.100
20.200	-2.570	0.100
20.300	7.691	0.100
20.400	-3.509	0.100
20.500	-10.026	0.100
20.600	-1.602	0.100
20.700	-3.459	0.100
20.800	3.302	0.100
20.900	-9.343	0.100
21.000	8.057	0.100
21.100	-1.264	0.100
21.200	1.726	0.100
21.300	-7.694	0.100
21.400	-3.338	0.100
21.500	-2.385	0.100
21.600	1.168	0.100
21.700	10.481	0.100
21.800	2.789	0.100
21.900	2.096	0.100
22.000	1.314	0.100
22.100	-1.870	0.100
22.200	-3.581	0.100
22.300	12.925	0.100
22.400	-6.140	0.100
22.500	4.270	0.100
22.600	2.278	0.100
22.700	-7.505	0.100
22.800	-16.249	0.100
22.900	8.022	0.100
23.000	0.385	0.100
23.100	-0.578	0.100
23.200	-2.590	0.100
23.300	-10.395	0.100
23.400	5.014	0.100
23.500	17.307	0.100
23.600	-2.682	0.100
23.700	-12.615	0.100
23.800	-7.830	0.100
23.900	9.861	0.100
24.000	5.705	0.100
24.100	4.849	0.100
24.200	-6.373	0.100
24.300	4.057	0.100
24.400	6.372	0.100
24.500	3.393	0.100
24.600	-5.000	0.100
24.700	1.973	0.100
24.800	1.098	0.100
24.900	10.163	0.100
25.000	-0.651	0.100
25.100	-8.014	0.100
25.200	-2.912	0.100
25.300	3.032	0.100
25.400	10.674	0.100
25.500	6.014	0.100
25.600	-7.907	0.100
25.700	-0.196	0.100
25.800	-0.432	0.100
25.900	5.998	0.100
26.000	-4.896	0.100
26.100	-7.979	0.100
26.200	9.017	0.100
26.300	-5.120	0.100
26.400	-8.720	0.100
26.500	-4.010	0.100
26.600	-4.469	0.100
26.700	4.028	0.100
26.800	-8.928	0.100
26.900	1.849	0.100
27.000	-0.079	0.100
27.100	-1.706	0.100
27.200	-3.939	0.100
27.300	0.032	0.100
27.400	3.954	0.100
27.500	-4.433	0.100
27.600	-5.056	0.100
27.700	-9.648	0.100
27.800	-2.999	0.100
27.900	-12.242	0.100
28.000	-0.353	0.100
28.100	3.190	0.100
28.200	-8.731	0.100
28.300	4.871	0.100
28.400	9.886	0.100
28.500	7.392	0.100
28.600	0.346	0.100
28.700	2.112	0.100
28.800	5.103	0.100
28.900	3.651	0.100
29.000	7.930	0.100
29.100	4.859	0.100
29.200	-3.821	0.100
29.300	4.510	0.100
29.400	-3.285	0.100
29.500	-0.157	0.100
29.600	-12.452	0.100
29.700	7.980	0.100
29.800	-0.442	0.100
29.900	10.469	0.100
30.000	14.111	0.100
30.100	0.475	0.100
30.200	10.391	0.100
30.300	5.939	0.100
30.400	15.912	0.100
30.500	19.528	0.100
30.600	23.460	0.100
30.700	34.308	0.100
30.800	22.038	0.100
30.900	26.737	0.100
31.000	13.191	0.100
31.100	24.106	0.100
31.200	21.393	0.100
31.300	20.564	0.100
31.400	17.966	0.100
31.500	20.645	0.100
31.600	23.242	0.100
31.700	12.614	0.100
31.800	28.443	0.100
31.900	29.944	0.100
32.000	33.535	0.100
32.100	22.902	0.100
32.200	25.064	0.100
32.300	23.357	0.100
32.400	25.996	0.100
32.500	14.082	0.100
32.600	16.204	0.100
32.700	34.488	0.100
32.800	26.568	0.100
32.900	18.864	0.100
33.000	17.009	0.100
33.100	25.937	0.100
33.200	31.093	0.100
33.300	23.708	0.100
33.400	22.076	0.100
33.500	20.942	0.100
33.600	32.245	0.100
33.700	19.301	0.100
33.800	16.323	0.100
33.900	17.447	0.100
34.000	26.974	0.100
34.100	13.560	0.100
34.200	12.595	0.100
34.300	18.634	0.100
34.400	26.048	0.100
34.500	19.332	0.100
34.600	23.439	0.100
34.700	14.821	0.100
34.800	26.417	0.100
34.900	13.290	0.100
35.000	5.935	0.100
35.100	18.199	0.100
35.200	28.800	0.100
35.300	14.936	0.100
35.400	19.075	0.100
35.500	14.747	0.100
35.600	16.280	0.100
35.700	13.179	0.100
35.800	11.305	0.100
35.900	6.854	0.100
36.000	10.761	0.100
36.100	14.389	0.100
36.200	28.279	0.100
36.300	19.331	0.100
36.400	10.362	0.100
36.500	20.244	0.100
36.600	17.261	0.100
36.700	24.328	0.100
36.800	19.241	0.100
36.900	20.213	0.100
37.000	12.298	0.100
37.100	7.684	0.100
37.200	33.378	0.100
37.300	26.091	0.100
37.400	19.099	0.100
37.500	23.100	0.100
37.600	33.698	0.100
37.700	20.160	0.100
37.800	25.481	0.100
37.900	13.369	0.100
38.000	8.072	0.100
38.100	12.556	0.100
38.200	31.789	0.100
38.300	5.416	0.100
38.400	3.460	0.100
38.500	22.024	0.100
38.600	18.656	0.100
38.700	20.370	0.100
38.800	21.407	0.100
38.900	15.354	0.100
39.000	17.745	0.100
39.100	18.524	0.100
39.200	15.474	0.100
39.300	14.854	0.100
39.400	15.462	0.100
39.500	12.416	0.100
39.600	16.540	0.100
39.700	28.434	0.100
39.800	25.707	0.100
39.900	14.076	0.100
40.000	24.674	0.100
40.100	15.203	0.100
40.200	12.107	0.100
40.300	20.472	0.100
40.400	20.426	0.100
40.500	12.909	0.100
40.600	-1.242	0.100
40.700	8.639	0.100
40.800	28.761	0.100
40.900	28.113	0.100
41.000	19.955	0.100
41.100	23.272	0.100
41.200	20.505	0.100
41.300	11.080	0.100
41.400	26.085	0.100
41.500	22.314	0.100
41.600	22.562	0.100
41.700	4.319	0.100
41.800	10.019	0.100
41.900	9.435	0.100
42.000	12.446	0.100
42.100	25.839	0.100
42.200	20.892	0.100
42.300	27.133	0.100
42.400	7.771	0.100
42.500	24.283	0.100
42.600	20.907	0.100
42.700	20.553	0.100
42.800	19.626	0.100
42.900	11.102	0.100
43.000	15.829	0.100
43.100	17.936	0.100
43.200	8.024	0.100
43.300	24.135	0.100
43.400	18.743	0.100
43.500	9.747	0.100
43.600	25.172	0.100
43.700	18.755	0.100
43.800	22.691	0.100
43.900	17.969	0.100
44.000	15.152	0.100
44.100	28.622	0.100
44.200	11.251	0.100
44.300	33.763	0.100
44.400	24.496	0.100
44.500	25.607	0.100
44.600	25.268	0.100
44.700	22.730	0.100
44.800	22.256	0.100
44.900	25.159	0.100
45.000	9.417	0.100
45.100	21.187	0.100
45.200	13.650	0.100
45.300	20.106	0.100
45.400	12.337	0.100
45.500	9.411	0.100
45.600	25.596	0.100
45.700	17.498	0.100
45.800	23.433	0.100
45.900	12.063	0.100
46.000	8.077	0.100
46.100	10.039	0.100
46.200	19.083	0.100
46.300	27.637	0.100
46.400	23.602	0.100
46.500	5.117	0.100
46.600	19.290	0.100
46.700	7.899	0.100
46.800	26.589	0.100
46.900	28.042	0.100
47.000	5.210	0.100
47.100	22.338	0.100
47.200	22.851	0.100
47.300	11.191	0.100
47.400	3.598	0.100
47.500	25.677	0.100
47.600	23.512	0.100
47.700	30.590	0.100
47.800	23.707	0.100
47.900	20.195	0.100
48.000	5.185	0.100
48.100	21.852	0.100
48.200	22.165	0.100
48.300	18.974	0.100
48.400	20.936	0.100
48.500	19.212	0.100
48.600	0.501	0.100
48.700	15.589	0.100
48.800	21.917	0.100
48.900	25.263	0.100
49.000	17.998	0.100
49.100	7.756	0.100
49.200	0.121	0.100
49.300	8.527	0.100
49.400	20.748	0.100
49.500	37.078	0.100
49.600	22.893	0.100
49.700	17.654	0.100
49.800	17.636	0.100
49.900	12.134	0.100
50.000	6.109	0.100
50.100	26.747	0.100
50.200	24.161	0.100
50.300	19.765	0.100
50.400	13.628	0.100
50.500	11.708	0.100
50.600	25.001	0.100
50.700	22.632	0.100
50.800	3.274	0.100
50.900	21.279	0.100
51.000	13.471	0.100
51.100	12.961	0.100
51.200	20.250	0.100
51.300	19.014	0.100
51.400	28.911	0.100
51.500	19.646	0.100
51.600	11.420	0.100
51.700	15.376	0.100
51.800	20.091	0.100
51.900	20.847	0.100
52.000	18.497	0.100
52.100	25.238	0.100
52.200	20.769	0.100
52.300	34.220	0.100
52.400	16.239	0.100
52.500	8.090	0.100
52.600	26.218	0.100
52.700	23.484	0.100
52.800	1.876	0.100
52.900	18.572	0.100
53.000	13.192	0.100
53.100	14.201	0.100
53.200	13.922	0.100
53.300	25.669	0.100
53.400	28.179	0.100
53.500	23.017	0.100
53.600	12.006	0.100
53.700	19.960	0.100
53.800	27.182	0.100
53.900	21.667	0.100
54.000	23.654	0.100
54.100	15.663	0.100
54.200	16.887	0.100
54.300	17.726	0.100
54.400	17.626	0.100
54.500	27.317	0.100
54.600	10.986	0.100
54.700	16.673	0.100
54.800	13.399	0.100
54.900	24.791	0.100
55.000	23.789	0.100
55.100	18.872	0.100
55.200	20.597	0.100
55.300	23.269	0.100
55.400	35.093	0.100
55.500	18.680	0.100
55.600	25.354	0.100
55.700	19.144	0.100
55.800	19.575	0.100
55.900	24.659	0.100
56.000	1.605	0.100
56.100	26.948	0.100
56.200	16.237	0.100
56.300	13.251	0.100
56.400	28.490	0.100
56.500	35.383	0.100
56.600	22.036	0.100
56.700	18.431	0.100
56.800	21.744	0.100
56.900	24.656	0.100
57.000	32.645	0.100
57.100	26.106	0.100
57.200	22.957	0.100
57.300	12.215	0.100
57.400	16.856	0.100
57.500	17.782	0.100
57.600	19.958	0.100
57.700	18.637	0.100
57.800	24.779	0.100
57.900	19.591	0.100
58.000	22.336	0.100
58.100	20.149	0.100
58.200	20.150	0.100
58.300	18.552	0.100
58.400	14.353	0.100
58.500	8.904	0.100
58.600	22.988	0.100
58.700	22.638	0.100
58.800	18.444	0.100
58.900	16.344	0.100
59.000	27.855	0.100
59.100	29.833	0.100
59.200	24.438	0.100
59.300	34.951	0.100
59.400	17.710	0.100
59.500	20.558	0.100
59.600	13.290	0.100
59.700	20.422	0.100
59.800	20.562	0.100
59.900	30.692	0.100
60.000	11.946	0.100
60.100	10.267	0.100
60.200	18.502	0.100
60.300	13.002	0.100
60.400	8.163	0.100
60.500	22.921	0.100
60.600	30.435	0.100
60.700	27.409	0.100
60.800	20.537	0.100
60.900	19.908	0.100
61.000	23.465	0.100
61.100	22.278	0.100
61.200	13.432	0.100
61.300	16.774	0.100
61.400	26.919	0.100
61.500	24.961	0.100
61.600	19.738	0.100
61.700	22.641	0.100
61.800	11.726	0.100
61.900	14.613	0.100
62.000	21.417	0.100
62.100	23.554	0.100
62.200	19.577	0.100
62.300	19.317	0.100
62.400	15.102	0.100
62.500	18.812	0.100
62.600	11.122	0.100
62.700	3.105	0.100
62.800	26.222	0.100
62.900	29.297	0.100
63.000	30.964	0.100
63.100	27.158	0.100
63.200	28.461	0.100
63.300	26.791	0.100
63.400	19.798	0.100
63.500	20.365	0.100
63.600	32.242	0.100
63.700	21.341	0.100
63.800	18.963	0.100
63.900	14.598	0.100
64.000	22.504	0.100
64.100	17.396	0.100
64.200	29.922	0.100
64.300	27.099	0.100
64.400	25.651	0.100
64.500	12.144	0.100
64.600	25.341	0.100
64.700	23.541	0.100
64.800	21.911	0.100
64.900	15.056	0.100
65.000	22.756	0.100
65.100	16.767	0.100
65.200	23.201	0.100
65.300	-3.396	0.100
65.400	14.281	0.100
65.500	37.436	0.100
65.600	19.226	0.100
65.700	16.354	0.100
65.800	16.601	0.100
65.900	24.643	0.100
66.000	15.748	0.100
66.100	18.344	0.100
66.200	23.454	0.100
66.300	26.199	0.100
66.400	19.048	0.100
66.500	3.618	0.100
66.600	18.744	0.100
66.700	20.340	0.100
66.800	19.329	0.100
66.900	29.091	0.100
67.000	18.423	0.100
67.100	22.608	0.100
67.200	25.271	0.100
67.300	25.507	0.100
67.400	19.589	0.100
67.500	22.069	0.100
67.600	16.378	0.100
67.700	22.919	0.100
67.800	21.154	0.100
67.900	18.460	0.100
68.000	26.689	0.100
68.100	3.616	0.100
68.200	22.622	0.100
68.300	23.520	0.100
68.400	17.061	0.100
68.500	32.781	0.100
68.600	37.457	0.100
68.700	21.755	0.100
68.800	26.087	0.100
68.900	17.053	0.100
69.000	14.585	0.100
69.100	24.299	0.100
69.200	23.183	0.100
69.300	19.323	0.100
69.400	11.743	0.100
69.500	29.840	0.100
69.600	24.326	0.100
69.700	22.124	0.100
69.800	23.187	0.100
69.900	28.809	0.100
70.000	33.342	0.100
70.100	16.650	0.100
70.200	13.283	0.100
70.300	19.668	0.100
70.400	16.533	0.100
70.500	18.383	0.100
70.600	12.751	0.100
70.700	23.232	0.100
70.800	26.358	0.100
70.900	16.656	0.100
71.000	19.476	0.100
71.100	13.363	0.100
71.200	16.244	0.100
71.300	19.747	0.100
71.400	31.572	0.100
71.500	2.641	0.100
71.600	16.088	0.100
71.700	24.586	0.100
71.800	23.088	0.100
71.900	17.933	0.100
72.000	31.668	0.100
72.100	23.861	0.100
72.200	27.286	0.100
72.300	26.477	0.100
72.400	12.002	0.100
72.500	20.547	0.100
72.600	9.485	0.100
72.700	14.499	0.100
72.800	42.199	0.100
72.900	14.570	0.100
73.000	17.324	0.100
73.100	20.492	0.100
73.200	19.285	0.100
73.300	22.699	0.100
73.400	27.646	0.100
73.500	30.536	0.100
73.600	17.844	0.100
73.700	17.040	0.100
73.800	15.036	0.100
73.900	16.654	0.100
74.000	28.154	0.100
74.100	27.943	0.100
74.200	17.441	0.100
74.300	15.069	0.100
74.400	32.956	0.100
74.500	17.710	0.100
74.600	14.528	0.100
74.700	21.098	0.100
74.800	17.061	0.100
74.900	1.078	0.100
75.000	32.614	0.100
75.100	25.411	0.100
75.200	11.625	0.100
75.300	18.027	0.100
75.400	21.407	0.100
75.500	20.853	0.100
75.600	32.681	0.100
75.700	27.957	0.100
75.800	24.331	0.100
75.900	25.638	0.100
76.000	18.024	0.100
76.100	16.017	0.100
76.200	20.778	0.100
76.300	19.847	0.100
76.400	9.918	0.100
76.500	15.129	0.100
76.600	23.302	0.100
76.700	10.406	0.100
76.800	13.623	0.100
76.900	21.125	0.100
77.000	27.010	0.100
77.100	27.767	0.100
77.200	32.687	0.100
77.300	26.807	0.100
77.400	18.372	0.100
77.500	19.313	0.100
77.600	25.028	0.100
77.700	26.681	0.100
77.800	13.566	0.100
77.900	15.457	0.100
78.000	26.053	0.100
78.100	14.131	0.100
78.200	24.196	0.100
78.300	33.702	0.100
78.400	23.134	0.100
78.500	4.915	0.100
78.600	23.159	0.100
78.700	16.450	0.100
78.800	24.865	0.100
78.900	22.925	0.100
79.000	40.129	0.100
79.100	37.510	0.100
79.200	32.025	0.100
79.300	19.014	0.100
79.400	6.549	0.100
79.500	19.327	0.100
79.600	22.958	0.100
79.700	8.474	0.100
79.800	23.111	0.100
79.900	33.406	0.100
80.000	21.842	0.100
80.100	19.547	0.100
80.200	19.771	0.100
80.300	27.780	0.100
80.400	18.910	0.100
80.500	23.756	0.100
80.600	24.741	0.100
80.700	14.570	0.100
80.800	10.984	0.100
80.900	17.896	0.100
81.000	25.966	0.100
81.100	26.727	0.100
81.200	22.172	0.100
81.300	18.163	0.100
81.400	15.731	0.100
81.500	23.913	0.100
81.600	31.224	0.100
81.700	18.492	0.100
81.800	25.933	0.100
81.900	17.884	0.100
82.000	18.331	0.100
82.100	-3.421	0.100
82.200	18.756	0.100
82.300	29.625	0.100
82.400	19.996	0.100
82.500	9.963	0.100
82.600	21.784	0.100
82.700	22.783	0.100
82.800	20.310	0.100
82.900	19.049	0.100
83.000	14.098	0.100
83.100	30.515	0.100
83.200	30.169	0.100
83.300	24.481	0.100
83.400	29.223	0.100
83.500	24.692	0.100
83.600	23.024	0.100
83.700	15.610	0.100
83.800	27.142	0.100
83.900	21.120	0.100
84.000	23.722	0.100
84.100	21.206	0.100
84.200	25.081	0.100
84.300	8.594	0.100
84.400	24.031	0.100
84.500	29.094	0.100
84.600	13.747	0.100
84.700	19.565	0.100
84.800	18.012	0.100
84.900	18.644	0.100
85.000	19.908	0.100
85.100	16.784	0.100
85.200	19.522	0.100
85.300	18.065	0.100
85.400	13.361	0.100
85.500	9.880	0.100
85.600	21.116	0.100
85.700	22.948	0.100
85.800	23.617	0.100
85.900	40.276	0.100
86.000	25.695	0.100
86.100	26.397	0.100
86.200	19.812	0.100
86.300	23.519	0.100
86.400	17.944	0.100
86.500	10.133	0.100
86.600	22.601	0.100
86.700	22.456	0.100
86.800	31.341	0.100
86.900	28.141	0.100
87.000	30.920	0.100
87.100	23.081	0.100
87.200	13.190	0.100
87.300	13.482	0.100
87.400	32.071	0.100
87.500	29.247	0.100
87.600	30.586	0.100
87.700	18.171	0.100
87.800	14.308	0.100
87.900	17.886	0.100
88.000	11.343	0.100
88.100	36.530	0.100
88.200	22.035	0.100
88.300	21.584	0.100
88.400	17.693	0.100
88.500	24.762	0.100
88.600	28.892	0.100
88.700	23.914	0.100
88.800	14.448	0.100
88.900	10.652	0.100
89.000	22.008	0.100
89.100	25.536	0.100
89.200	24.451	0.100
89.300	16.229	0.100
89.400	7.293	0.100
89.500	26.716	0.100
89.600	25.383	0.100
89.700	28.753	0.100
89.800	8.177	0.100
89.900	20.084	0.100
90.000	16.849	0.100
90.100	17.928	0.100
90.200	8.473	0.100
90.300	16.263	0.100
90.400	1.696	0.100
90.500	9.847	0.100
90.600	7.428	0.100
90.700	10.676	0.100
90.800	1.308	0.100
90.900	-4.621	0.100
91.000	2.955	0.100
91.100	16.598	0.100
91.200	2.504	0.100
91.300	-11.315	0.100
91.400	-9.240	0.100
91.500	2.238	0.100
91.600	-5.970	0.100
91.700	2.703	0.100
91.800	-7.533	0.100
91.900	-9.751	0.100
92.000	-4.024	0.100
92.100	-5.567	0.100
92.200	0.317	0.100
92.300	-3.408	0.100
92.400	-5.716	0.100
92.500	0.790	0.100
92.600	-14.227	0.100
92.700	-11.351	0.100
92.800	-7.770	0.100
92.900	-11.035	0.100
93.000	2.042	0.100
93.100	-3.575	0.100
93.200	3.211	0.100
93.300	-12.047	0.100
93.400	-0.235	0.100
93.500	-12.940	0.100
93.600	0.715	0.100
93.700	-5.866	0.100
93.800	-3.176	0.100
93.900	-11.211	0.100
94.000	-4.747	0.100
94.100	-6.605	0.100
94.200	-5.595	0.100
94.300	-5.544	0.100
94.400	-16.733	0.100
94.500	-14.195	0.100
94.600	-9.814	0.100
94.700	-8.033	0.100
94.800	-12.063	0.100
94.900	-5.441	0.100
95.000	-17.426	0.100
95.100	3.099	0.100
95.200	-3.838	0.100
95.300	-7.977	0.100
95.400	-16.475	0.100
95.500	-16.739	0.100
95.600	-20.528	0.100
95.700	3.397	0.100
95.800	0.898	0.100
95.900	-8.589	0.100
96.000	-8.856	0.100
96.100	-5.418	0.100
96.200	-7.997	0.100
96.300	-8.151	0.100
