time /s	I /nA	E /V
0.100	-0.845	0.099
0.200	2.570	0.099
0.300	3.312	0.099
0.400	7.711	0.099
0.500	12.093	0.099
0.600	-0.551	0.099
0.700	6.491	0.099
0.800	2.787	0.099
0.900	-5.355	0.099
1.000	6.117	0.099
1.100	4.187	0.099
1.200	9.843	0.099
1.300	2.165	0.099
1.400	3.040	0.099
1.500	-19.996	0.099
1.600	-0.960	0.099
1.700	-1.593	0.099
1.800	6.114	0.099
1.900	3.742	0.099
2.000	-2.829	0.099
2.100	-1.411	0.099
2.200	6.877	0.099
2.300	5.796	0.099
2.400	6.610	0.099
2.500	-0.696	0.099
2.600	0.658	0.099
2.700	-6.566	0.099
2.800	-0.228	0.099
2.900	2.449	0.099
3.000	-7.629	0.099
3.100	-1.964	0.099
3.200	-12.986	0.099
3.300	7.153	0.099
3.400	-2.125	0.099
3.500	0.184	0.099
3.600	-5.456	0.099
3.700	-1.110	0.099
3.800	-5.125	0.099
3.900	7.892	0.099
4.000	3.472	0.099
4.100	-15.671	0.099
4.200	9.812	0.099
4.300	9.073	0.099
4.400	7.101	0.099
4.500	-4.211	0.099
4.600	-9.195	0.099
4.700	-2.040	0.099
4.800	-2.567	0.099
4.900	-1.596	0.099
5.000	6.054	0.099
5.100	5.981	0.099
5.200	8.746	0.099
5.300	2.689	0.099
5.400	1.387	0.099
5.500	-3.055	0.099
5.600	5.223	0.099
5.700	3.473	0.099
5.800	-9.326	0.099
5.900	9.655	0.099
6.000	0.789	0.099
6.100	2.816	0.099
6.200	1.180	0.099
6.300	6.487	0.099
6.400	-3.675	0.100
6.500	5.172	0.100
6.600	0.791	0.100
6.700	-9.536	0.100
6.800	7.936	0.100
6.900	4.047	0.100
7.000	1.612	0.100
7.100	9.911	0.100
7.200	-13.676	0.100
7.300	-4.306	0.100
7.400	4.048	0.100
7.500	12.538	0.100
7.600	5.912	0.100
7.700	-13.773	0.100
7.800	-1.957	0.100
7.900	11.727	0.100
8.000	5.913	0.100
8.100	-3.131	0.100
8.200	-13.581	0.100
8.300	19.334	0.100
8.400	1.941	0.100
8.500	-10.336	0.100
8.600	0.814	0.100
8.700	6.215	0.100
8.800	6.235	0.100
8.900	0.061	0.100
9.000	1.243	0.100
9.100	-4.003	0.100
9.200	11.761	0.100
9.300	-1.674	0.100
9.400	0.442	0.100
9.500	-7.404	0.100
9.600	3.895	0.100
9.700	1.225	0.100
9.800	6.512	0.100
9.900	-6.294	0.100
10.000	6.491	0.100
10.100	-0.892	0.100
10.200	-6.368	0.100
10.300	11.588	0.100
10.400	1.451	0.100
10.500	4.823	0.100
10.600	-3.286	0.100
10.700	13.469	0.100
10.800	-8.974	0.100
10.900	7.636	0.100
11.000	-1.727	0.100
11.100	-2.596	0.100
11.200	-1.100	0.100
11.300	0.771	0.100
11.400	-0.259	0.100
11.500	1.855	0.100
11.600	0.375	0.100
11.700	6.086	0.100
11.800	-8.877	0.100
11.900	-6.797	0.100
12.000	-0.999	0.100
12.100	-7.585	0.100
12.200	1.066	0.100
12.300	9.500	0.100
12.400	-5.213	0.100
12.500	-1.787	0.100
12.600	0.696	0.100
12.700	-6.366	0.100
12.800	6.453	0.100
12.900	-0.944	0.100
13.000	4.307	0.100
13.100	-2.275	0.100
13.200	7.309	0.100
13.300	-4.467	0.100
13.400	-4.324	0.100
13.500	4.114	0.100
13.600	-1.638	0.100
13.700	-10.958	0.100
13.800	-23.152	0.100
13.900	8.907	0.100
14.000	7.941	0.100
14.100	-0.771	0.100
14.200	4.294	0.100
14.300	4.557	0.100
14.400	-9.614	0.100
14.500	0.333	0.100
14.600	13.559	0.100
14.700	0.199	0.100
14.800	-10.084	0.100
14.900	-5.757	0.100
15.000	-3.604	0.100
15.100	-11.801	0.100
15.200	6.471	0.100
15.300	13.741	0.100
15.400	-6.980	0.100
15.500	5.628	0.100
15.600	10.080	0.100
15.700	4.548	0.100
15.800	-7.730	0.100
15.900	-6.139	0.100
16.000	-5.528	0.100
16.100	-3.583	0.100
16.200	2.527	0.100
16.300	-10.889	0.100
16.400	13.214	0.100
16.500	4.255	0.100
16.600	0.046	0.100
16.700	1.106	0.100
16.800	7.352	0.100
16.900	-19.260	0.100
17.000	3.149	0.100
17.100	0.570	0.100
17.200	3.285	0.100
17.300	6.143	0.100
17.400	-1.145	0.100
17.500	-2.372	0.100
17.600	-3.801	0.100
17.700	0.873	0.100
17.800	-1.666	0.100
17.900	-7.897	0.100
18.000	-7.152	0.100
18.100	4.133	0.100
18.200	-2.947	0.100
18.300	6.872	0.100
18.400	6.241	0.100
18.500	-8.965	0.100
18.600	3.599	0.100
18.700	7.884	0.100
18.800	-2.966	0.100
18.900	-6.998	0.100
19.000	-5.333	0.100
19.100	3.041	0.100
19.200	-7.215	0.100
19.300	-14.504	0.100
19.400	2.213	0.100
19.500	1.682	0.100
19.600	2.145	0.100
19.700	5.414	0.100
19.800	-13.452	0.100
19.900	6.582	0.100
20.000	5.942	0.100
20.100	8.336	0.100
20.200	5.238	0.100
20.300	-2.837	0.100
20.400	1.610	0.100
20.500	5.866	0.100
20.600	-0.997	0.100
20.700	9.849	0.100
20.800	1.819	0.100
20.900	-1.803	0.100
21.000	4.889	0.100
21.100	-6.934	0.100
21.200	-1.932	0.100
21.300	4.714	0.100
21.400	7.700	0.100
21.500	-11.174	0.100
21.600	2.979	0.100
21.700	8.754	0.100
21.800	-5.468	0.100
21.900	-3.892	0.100
22.000	-5.009	0.100
22.100	-6.626	0.100
22.200	-2.569	0.100
22.300	2.569	0.100
22.400	-2.100	0.100
22.500	-11.079	0.100
22.600	-2.311	0.100
22.700	13.827	0.100
22.800	9.309	0.100
22.900	5.380	0.100
23.000	-2.074	0.100
23.100	3.584	0.100
23.200	0.543	0.100
23.300	4.536	0.100
23.400	6.767	0.100
23.500	5.212	0.100
23.600	-5.095	0.100
23.700	-5.870	0.100
23.800	6.881	0.100
23.900	-4.162	0.100
24.000	10.820	0.100
24.100	-2.626	0.100
24.200	-1.753	0.100
24.300	1.644	0.100
24.400	5.821	0.100
24.500	-9.062	0.100
24.600	-4.079	0.100
24.700	5.779	0.100
24.800	-2.752	0.100
24.900	-0.445	0.100
25.000	4.103	0.100
25.100	2.198	0.100
25.200	3.391	0.100
25.300	0.715	0.100
25.400	7.753	0.100
25.500	3.803	0.100
25.600	-3.330	0.100
25.700	1.274	0.100
25.800	15.050	0.100
25.900	6.451	0.100
26.000	11.268	0.100
26.100	-5.975	0.100
26.200	-11.684	0.100
26.300	-9.221	0.100
26.400	-2.493	0.100
26.500	-5.212	0.100
26.600	0.606	0.100
26.700	-0.857	0.100
26.800	5.051	0.100
26.900	2.117	0.100
27.000	-0.591	0.100
27.100	4.279	0.100
27.200	8.943	0.100
27.300	-6.315	0.100
27.400	0.395	0.100
27.500	1.035	0.100
27.600	-3.298	0.100
27.700	-4.840	0.100
27.800	-1.374	0.100
27.900	-8.673	0.100
28.000	2.991	0.100
28.100	6.176	0.100
28.200	-4.159	0.100
28.300	-1.835	0.100
28.400	0.833	0.100
28.500	1.232	0.100
28.600	0.205	0.100
28.700	-3.706	0.100
28.800	11.196	0.100
28.900	3.686	0.100
29.000	-3.018	0.100
29.100	-15.347	0.100
29.200	-11.002	0.100
29.300	0.182	0.100
29.400	13.149	0.100
29.500	3.982	0.100
29.600	-5.969	0.100
29.700	1.495	0.100
29.800	5.600	0.100
29.900	5.726	0.100
30.000	-8.093	0.100
30.100	-2.301	0.100
30.200	-15.172	0.100
30.300	1.627	0.100
30.400	8.333	0.100
30.500	2.895	0.100
30.600	14.488	0.100
30.700	22.400	0.100
30.800	4.104	0.100
30.900	14.972	0.100
31.000	4.977	0.100
31.100	18.756	0.100
31.200	27.363	0.100
31.300	11.267	0.100
31.400	20.811	0.100
31.500	25.931	0.100
31.600	27.325	0.100
31.700	25.539	0.100
31.800	28.505	0.100
31.900	22.300	0.100
32.000	26.645	0.100
32.100	36.899	0.100
32.200	32.986	0.100
32.300	32.995	0.100
32.400	21.890	0.100
32.500	20.419	0.100
32.600	16.223	0.100
32.700	35.315	0.100
32.800	45.401	0.100
32.900	29.169	0.100
33.000	40.096	0.100
33.100	34.969	0.100
33.200	32.992	0.100
33.300	24.345	0.100
33.400	24.667	0.100
33.500	26.651	0.100
33.600	34.791	0.100
33.700	28.323	0.100
33.800	41.207	0.099
33.900	40.113	0.100
34.000	24.933	0.100
34.100	23.224	0.100
34.200	25.702	0.100
34.300	24.503	0.099
34.400	38.956	0.100
34.500	33.876	0.100
34.600	23.395	0.100
34.700	46.667	0.100
34.800	40.885	0.099
34.900	33.449	0.099
35.000	37.718	0.100
35.100	24.635	0.100
35.200	29.340	0.099
35.300	31.294	0.099
35.400	34.002	0.099
35.500	27.854	0.100
35.600	39.630	0.099
35.700	33.376	0.099
35.800	29.628	0.099
35.900	33.417	0.100
36.000	31.610	0.100
36.100	38.719	0.100
36.200	37.105	0.100
36.300	37.712	0.100
36.400	29.775	0.099
36.500	25.163	0.099
36.600	27.883	0.099
36.700	40.089	0.100
36.800	34.060	0.099
36.900	31.990	0.100
37.000	33.761	0.100
37.100	37.218	0.100
37.200	35.254	0.100
37.300	26.333	0.099
37.400	32.093	0.100
37.500	25.812	0.100
37.600	45.016	0.100
37.700	33.097	0.099
37.800	34.042	0.099
37.900	31.314	0.100
38.000	35.582	0.099
38.100	35.701	0.099
38.200	33.973	0.099
38.300	41.819	0.099
38.400	35.091	0.100
38.500	33.267	0.099
38.600	31.852	0.099
38.700	36.999	0.100
38.800	38.856	0.100
38.900	41.196	0.100
39.000	26.063	0.100
39.100	44.184	0.100
39.200	39.972	0.100
39.300	36.298	0.100
39.400	29.082	0.099
39.500	44.530	0.099
39.600	40.020	0.099
39.700	32.939	0.100
39.800	41.755	0.100
39.900	47.161	0.100
40.000	44.765	0.100
40.100	33.178	0.100
40.200	39.989	0.100
40.300	28.935	0.100
40.400	37.768	0.100
40.500	39.900	0.100
40.600	38.522	0.100
40.700	42.092	0.100
40.800	42.323	0.100
40.900	26.557	0.100
41.000	37.858	0.100
41.100	36.573	0.100
41.200	41.901	0.100
41.300	32.168	0.100
41.400	34.257	0.100
41.500	22.981	0.100
41.600	41.930	0.100
41.700	40.570	0.100
41.800	54.272	0.100
41.900	38.791	0.100
42.000	42.378	0.100
42.100	28.886	0.100
42.200	27.568	0.100
42.300	40.223	0.100
42.400	44.710	0.100
42.500	35.414	0.100
42.600	49.325	0.100
42.700	43.589	0.100
42.800	35.163	0.100
42.900	42.043	0.100
43.000	27.419	0.100
43.100	51.631	0.100
43.200	36.097	0.100
43.300	42.324	0.100
43.400	28.264	0.100
43.500	31.841	0.100
43.600	40.303	0.100
43.700	43.953	0.100
43.800	52.870	0.100
43.900	49.672	0.100
44.000	28.578	0.100
44.100	36.309	0.100
44.200	36.498	0.100
44.300	43.606	0.100
44.400	42.522	0.100
44.500	33.847	0.100
44.600	29.888	0.100
44.700	38.355	0.100
44.800	42.918	0.100
44.900	45.664	0.100
45.000	39.427	0.100
45.100	37.549	0.100
45.200	32.438	0.100
45.300	31.661	0.100
45.400	47.783	0.100
45.500	49.218	0.100
45.600	42.559	0.100
45.700	43.361	0.100
45.800	32.931	0.100
45.900	34.189	0.100
46.000	39.038	0.100
46.100	42.896	0.100
46.200	48.964	0.100
46.300	48.271	0.100
46.400	34.976	0.100
46.500	40.186	0.100
46.600	44.043	0.100
46.700	36.626	0.100
46.800	40.790	0.100
46.900	39.136	0.100
47.000	45.441	0.100
47.100	43.982	0.100
47.200	43.842	0.100
47.300	50.877	0.100
47.400	42.168	0.100
47.500	39.865	0.100
47.600	33.762	0.100
47.700	31.599	0.100
47.800	49.244	0.100
47.900	46.122	0.100
48.000	41.497	0.100
48.100	55.732	0.100
48.200	59.085	0.100
48.300	31.238	0.100
48.400	34.962	0.100
48.500	36.096	0.100
48.600	32.370	0.100
48.700	44.241	0.100
48.800	49.911	0.100
48.900	32.027	0.100
49.000	31.088	0.100
49.100	40.274	0.100
49.200	47.128	0.100
49.300	54.369	0.100
49.400	47.097	0.100
49.500	57.428	0.100
49.600	59.567	0.100
49.700	35.401	0.100
49.800	39.521	0.100
49.900	32.499	0.100
50.000	52.135	0.100
50.100	45.836	0.100
50.200	50.850	0.100
50.300	42.211	0.100
50.400	41.955	0.100
50.500	33.922	0.100
50.600	31.269	0.100
50.700	36.287	0.100
50.800	51.116	0.100
50.900	37.501	0.100
51.000	38.824	0.100
51.100	49.219	0.100
51.200	47.575	0.100
51.300	54.290	0.100
51.400	42.022	0.100
51.500	37.876	0.100
51.600	34.524	0.100
51.700	32.297	0.100
51.800	38.717	0.100
51.900	44.859	0.100
52.000	44.588	0.100
52.100	54.908	0.100
52.200	41.292	0.100
52.300	42.802	0.100
52.400	60.863	0.100
52.500	40.334	0.100
52.600	42.950	0.100
52.700	43.554	0.100
52.800	50.798	0.100
52.900	42.221	0.100
53.000	33.146	0.100
53.100	38.546	0.100
53.200	48.782	0.100
53.300	47.065	0.100
53.400	45.932	0.100
53.500	38.824	0.099
53.600	31.390	0.100
53.700	42.789	0.099
53.800	47.696	0.100
53.900	33.632	0.100
54.000	45.059	0.100
54.100	37.196	0.100
54.200	40.688	0.099
54.300	50.887	0.100
54.400	49.063	0.100
54.500	41.453	0.100
54.600	42.188	0.099
54.700	41.540	0.100
54.800	43.424	0.100
54.900	54.467	0.100
55.000	45.429	0.100
55.100	49.071	0.100
55.200	47.941	0.100
55.300	46.103	0.100
55.400	39.796	0.099
55.500	41.852	0.100
55.600	42.340	0.100
55.700	31.695	0.100
55.800	52.042	0.100
55.900	36.468	0.100
56.000	26.179	0.100
56.100	43.468	0.100
56.200	48.836	0.100
56.300	49.410	0.100
56.400	48.592	0.099
56.500	40.526	0.099
56.600	39.197	0.099
56.700	45.027	0.099
56.800	38.676	0.099
56.900	38.837	0.099
57.000	50.121	0.099
57.100	44.298	0.099
57.200	40.755	0.099
57.300	48.524	0.099
57.400	39.368	0.099
57.500	45.867	0.099
57.600	49.950	0.099
57.700	38.209	0.099
57.800	36.658	0.099
57.900	40.788	0.099
58.000	46.946	0.099
58.100	36.227	0.099
58.200	50.186	0.099
58.300	50.618	0.099
58.400	38.860	0.099
58.500	57.687	0.099
58.600	66.101	0.099
58.700	61.341	0.099
58.800	45.302	0.099
58.900	45.000	0.099
59.000	37.446	0.099
59.100	45.728	0.099
59.200	45.615	0.099
59.300	30.696	0.099
59.400	31.850	0.099
59.500	39.932	0.099
59.600	39.357	0.099
59.700	33.000	0.099
59.800	44.233	0.099
59.900	59.396	0.099
60.000	49.383	0.099
60.100	43.566	0.099
60.200	46.572	0.099
60.300	55.410	0.099
60.400	42.207	0.099
60.500	43.110	0.099
60.600	36.191	0.099
60.700	42.183	0.099
60.800	48.690	0.099
60.900	47.574	0.099
61.000	38.311	0.099
61.100	38.624	0.099
61.200	32.862	0.099
61.300	53.299	0.099
61.400	51.892	0.099
61.500	49.559	0.099
61.600	47.368	0.099
61.700	41.048	0.099
61.800	40.111	0.099
61.900	46.276	0.099
62.000	32.640	0.099
62.100	50.843	0.099
62.200	35.870	0.099
62.300	48.918	0.099
62.400	50.459	0.099
62.500	42.030	0.099
62.600	32.528	0.099
62.700	54.222	0.099
62.800	56.073	0.099
62.900	41.186	0.099
63.000	50.717	0.099
63.100	53.277	0.099
63.200	37.643	0.099
63.300	49.223	0.099
63.400	48.059	0.099
63.500	45.158	0.099
63.600	43.514	0.099
63.700	45.458	0.099
63.800	47.814	0.099
63.900	42.029	0.099
64.000	53.825	0.099
64.100	42.431	0.099
64.200	43.231	0.099
64.300	46.508	0.099
64.400	41.063	0.099
64.500	42.433	0.099
64.600	43.595	0.099
64.700	46.483	0.099
64.800	47.648	0.099
64.900	38.651	0.099
65.000	47.554	0.099
65.100	44.073	0.099
65.200	47.976	0.099
65.300	44.434	0.099
65.400	43.906	0.099
65.500	45.316	0.099
65.600	64.027	0.099
65.700	46.483	0.099
65.800	40.731	0.099
65.900	34.243	0.099
66.000	48.397	0.099
66.100	48.264	0.099
66.200	38.609	0.099
66.300	46.475	0.099
66.400	57.098	0.099
66.500	46.241	0.099
66.600	40.711	0.099
66.700	50.578	0.099
66.800	46.959	0.099
66.900	49.633	0.099
67.000	53.069	0.099
67.100	45.383	0.099
67.200	50.899	0.099
67.300	41.858	0.099
67.400	39.281	0.099
67.500	50.088	0.099
67.600	43.181	0.099
67.700	52.919	0.099
67.800	37.004	0.099
67.900	38.305	0.099
68.000	53.036	0.099
68.100	62.163	0.100
68.200	55.133	0.099
68.300	50.345	0.100
68.400	37.223	0.099
68.500	49.057	0.099
68.600	48.536	0.100
68.700	41.144	0.099
68.800	41.239	0.099
68.900	46.751	0.099
69.000	38.341	0.099
69.100	44.945	0.099
69.200	46.140	0.099
69.300	51.094	0.099
69.400	44.711	0.100
69.500	54.749	0.099
69.600	47.178	0.100
69.700	47.919	0.100
69.800	38.960	0.099
69.900	46.628	0.099
70.000	59.232	0.100
70.100	38.630	0.099
70.200	41.687	0.099
70.300	49.166	0.100
70.400	48.299	0.099
70.500	37.950	0.099
70.600	53.095	0.099
70.700	46.590	0.099
70.800	44.107	0.099
70.900	42.628	0.099
71.000	43.424	0.100
71.100	44.435	0.099
71.200	54.702	0.099
71.300	51.634	0.099
71.400	52.892	0.099
71.500	47.122	0.099
71.600	43.746	0.099
71.700	54.975	0.099
71.800	53.837	0.099
71.900	45.304	0.099
72.000	45.554	0.099
72.100	32.293	0.099
72.200	57.082	0.099
72.300	49.175	0.099
72.400	50.244	0.099
72.500	41.286	0.099
72.600	45.850	0.099
72.700	46.375	0.099
72.800	44.012	0.099
72.900	35.373	0.099
73.000	40.729	0.099
73.100	41.801	0.099
73.200	50.771	0.099
73.300	52.479	0.100
73.400	46.807	0.099
73.500	53.181	0.100
73.600	39.261	0.100
73.700	57.059	0.100
73.800	53.153	0.100
73.900	55.543	0.100
74.000	45.625	0.100
74.100	51.416	0.100
74.200	26.329	0.100
74.300	43.456	0.100
74.400	47.516	0.100
74.500	52.396	0.100
74.600	43.725	0.100
74.700	53.814	0.100
74.800	56.550	0.100
74.900	50.248	0.100
75.000	41.044	0.100
75.100	54.255	0.100
75.200	54.664	0.100
75.300	54.493	0.100
75.400	41.897	0.100
75.500	48.601	0.100
75.600	56.536	0.100
75.700	48.484	0.100
75.800	35.213	0.100
75.900	54.121	0.100
76.000	44.324	0.100
76.100	51.323	0.100
76.200	42.953	0.100
76.300	35.203	0.100
76.400	25.687	0.100
76.500	44.646	0.100
76.600	59.617	0.100
76.700	53.971	0.100
76.800	38.847	0.100
76.900	51.383	0.100
77.000	48.922	0.100
77.100	42.791	0.100
77.200	49.731	0.100
77.300	53.911	0.100
77.400	31.814	0.100
77.500	56.488	0.100
77.600	47.892	0.100
77.700	48.286	0.100
77.800	49.558	0.100
77.900	38.952	0.100
78.000	54.908	0.100
78.100	60.431	0.100
78.200	64.723	0.100
78.300	48.557	0.100
78.400	43.430	0.100
78.500	47.226	0.100
78.600	37.452	0.100
78.700	49.181	0.100
78.800	41.894	0.100
78.900	39.179	0.100
79.000	40.553	0.100
79.100	51.929	0.099
79.200	54.191	0.099
79.300	60.265	0.100
79.400	40.766	0.099
79.500	52.553	0.099
79.600	49.229	0.099
79.700	39.848	0.099
79.800	44.368	0.099
79.900	38.028	0.099
80.000	42.839	0.099
80.100	54.186	0.099
80.200	59.021	0.099
80.300	45.766	0.099
80.400	51.898	0.099
80.500	31.719	0.099
80.600	48.546	0.100
80.700	56.181	0.099
80.800	61.289	0.099
80.900	54.936	0.100
81.000	49.034	0.099
81.100	44.599	0.099
81.200	43.786	0.099
81.300	41.682	0.099
81.400	43.039	0.099
81.500	52.035	0.099
81.600	52.540	0.099
81.700	48.775	0.099
81.800	31.690	0.099
81.900	47.793	0.099
82.000	50.155	0.099
82.100	53.862	0.099
82.200	43.217	0.099
82.300	47.311	0.099
82.400	51.046	0.099
82.500	46.678	0.099
82.600	39.125	0.099
82.700	57.307	0.099
82.800	56.748	0.099
82.900	42.563	0.099
83.000	46.197	0.099
83.100	53.118	0.099
83.200	40.666	0.099
83.300	52.021	0.099
83.400	51.194	0.099
83.500	60.962	0.099
83.600	57.018	0.099
83.700	46.331	0.099
83.800	26.890	0.100
83.900	49.011	0.099
84.000	34.630	0.099
84.100	58.160	0.099
84.200	56.067	0.099
84.300	48.558	0.099
84.400	60.933	0.099
84.500	47.328	0.099
84.600	44.208	0.099
84.700	56.126	0.099
84.800	44.659	0.099
84.900	53.765	0.099
85.000	47.059	0.099
85.100	49.216	0.099
85.200	42.301	0.099
85.300	50.382	0.099
85.400	48.725	0.099
85.500	42.653	0.099
85.600	35.787	0.099
85.700	55.635	0.099
85.800	51.932	0.099
85.900	51.156	0.099
86.000	43.259	0.099
86.100	50.028	0.099
86.200	50.189	0.099
86.300	47.882	0.099
86.400	54.209	0.099
86.500	44.332	0.099
86.600	49.630	0.099
86.700	54.583	0.099
86.800	48.337	0.099
86.900	38.690	0.099
87.000	55.054	0.099
87.100	47.196	0.099
87.200	32.500	0.099
87.300	42.845	0.099
87.400	48.541	0.099
87.500	56.703	0.099
87.600	52.109	0.099
87.700	48.199	0.099
87.800	51.670	0.099
87.900	51.743	0.099
88.000	56.593	0.099
88.100	55.876	0.099
88.200	51.611	0.099
88.300	56.499	0.099
88.400	39.173	0.099
88.500	48.925	0.099
88.600	47.123	0.099
88.700	64.739	0.099
88.800	53.868	0.099
88.900	55.333	0.099
89.000	46.256	0.099
89.100	46.282	0.099
89.200	50.886	0.099
89.300	47.684	0.099
89.400	50.594	0.099
89.500	52.825	0.099
89.600	39.104	0.099
89.700	43.815	0.099
89.800	48.727	0.099
89.900	49.476	0.099
90.000	48.436	0.099
90.100	56.307	0.099
90.200	52.311	0.099
90.300	47.461	0.099
90.400	50.505	0.099
90.500	42.945	0.099
90.600	45.148	0.099
90.700	46.317	0.099
90.800	45.409	0.099
90.900	39.866	0.099
91.000	47.822	0.099
91.100	34.483	0.099
91.200	27.962	0.099
91.300	30.576	0.099
91.400	24.697	0.099
91.500	36.584	0.099
91.600	29.238	0.099
91.700	34.103	0.099
91.800	27.659	0.099
91.900	20.404	0.099
92.000	30.034	0.099
92.100	22.348	0.099
92.200	29.552	0.099
92.300	24.236	0.099
92.400	27.600	0.099
92.500	15.513	0.099
92.600	14.418	0.099
92.700	20.530	0.099
92.800	4.233	0.099
92.900	20.149	0.099
93.000	21.507	0.099
93.100	27.182	0.099
93.200	18.880	0.099
93.300	18.618	0.099
93.400	19.993	0.099
93.500	20.664	0.099
93.600	11.106	0.099
93.700	6.004	0.099
93.800	12.517	0.099
93.900	20.897	0.099
94.000	14.315	0.099
94.100	21.388	0.099
94.200	14.482	0.099
94.300	17.205	0.099
94.400	15.846	0.099
94.500	10.643	0.099
94.600	5.745	0.099
94.700	7.058	0.099
94.800	9.747	0.099
94.900	20.585	0.099
95.000	13.068	0.099
95.100	8.777	0.099
95.200	19.765	0.099
95.300	8.429	0.099
95.400	5.602	0.099
95.500	23.211	0.099
95.600	1.470	0.099
95.700	11.601	0.099
95.800	16.999	0.100
95.900	8.950	0.100
96.000	13.356	0.100
96.100	14.538	0.100
96.200	12.792	0.100
96.300	8.282	0.100
