time /s	I /nA	E /V
0.100	-30.495	0.100
0.200	-40.579	0.100
0.300	-42.325	0.100
0.400	-23.702	0.100
0.500	-34.951	0.100
0.600	-33.855	0.100
0.700	-44.459	0.100
0.800	-32.316	0.100
0.900	-31.309	0.100
1.000	-34.654	0.100
1.100	-45.072	0.100
1.200	-35.654	0.100
1.300	-46.814	0.100
1.400	-44.938	0.100
1.500	-36.833	0.100
1.600	-33.336	0.100
1.700	-44.400	0.100
1.800	-49.939	0.100
1.900	-34.437	0.100
2.000	-34.520	0.100
2.100	-32.201	0.100
2.200	-35.605	0.100
2.300	-28.387	0.100
2.400	-51.583	0.100
2.500	-32.824	0.100
2.600	-46.832	0.100
2.700	-38.000	0.100
2.800	-32.215	0.100
2.900	-40.368	0.100
3.000	-55.932	0.100
3.100	-40.963	0.100
3.200	-52.044	0.100
3.300	-37.453	0.100
3.400	-30.033	0.100
3.500	-59.941	0.100
3.600	-35.991	0.100
3.700	-23.573	0.100
3.800	-43.096	0.100
3.900	-36.878	0.100
4.000	-23.849	0.100
4.100	-21.466	0.100
4.200	-34.342	0.100
4.300	-29.746	0.100
4.400	-33.399	0.100
4.500	-40.287	0.100
4.600	-48.670	0.100
4.700	-51.008	0.100
4.800	-40.081	0.100
4.900	-30.876	0.100
5.000	-18.809	0.100
5.100	-30.264	0.100
5.200	-34.557	0.100
5.300	-34.197	0.100
5.400	-34.565	0.100
5.500	-41.794	0.100
5.600	-33.780	0.100
5.700	-37.891	0.100
5.800	-35.672	0.100
5.900	-43.313	0.100
6.000	-49.212	0.100
6.100	-40.637	0.100
6.200	-30.557	0.100
6.300	-25.867	0.100
6.400	-35.438	0.100
6.500	-32.255	0.100
6.600	-43.029	0.100
6.700	-31.667	0.100
6.800	-31.330	0.100
6.900	-35.952	0.100
7.000	-49.368	0.100
7.100	-36.609	0.100
7.200	-32.063	0.100
7.300	-31.432	0.100
7.400	-36.133	0.100
7.500	-26.268	0.100
7.600	-41.926	0.100
7.700	-31.344	0.100
7.800	-31.676	0.100
7.900	-34.153	0.100
8.000	-31.781	0.100
8.100	-44.564	0.100
8.200	-50.399	0.100
8.300	-27.844	0.100
8.400	-34.393	0.100
8.500	-36.178	0.100
8.600	-34.529	0.100
8.700	-46.200	0.100
8.800	-33.637	0.100
8.900	-34.594	0.100
9.000	-38.553	0.100
9.100	-32.842	0.100
9.200	-32.925	0.100
9.300	-44.541	0.100
9.400	-35.717	0.100
9.500	-45.015	0.100
9.600	-27.739	0.100
9.700	-30.435	0.100
9.800	-34.946	0.100
9.900	-48.356	0.100
10.000	-36.263	0.100
10.100	-32.696	0.100
10.200	-43.326	0.100
10.300	-41.694	0.100
10.400	-40.818	0.100
10.500	-42.540	0.100
10.600	-31.314	0.100
10.700	-24.364	0.100
10.800	-34.123	0.100
10.900	-40.462	0.100
11.000	-39.113	0.100
11.100	-35.355	0.100
11.200	-25.939	0.100
11.300	-30.789	0.100
11.400	-35.460	0.100
11.500	-36.715	0.100
11.600	-39.917	0.100
11.700	-36.694	0.100
11.800	-29.116	0.100
11.900	-41.516	0.100
12.000	-31.980	0.100
12.100	-39.684	0.100
12.200	-49.594	0.100
12.300	-30.027	0.100
12.400	-29.261	0.100
12.500	-34.454	0.100
12.600	-33.524	0.100
12.700	-36.464	0.100
12.800	-19.325	0.100
12.900	-25.185	0.100
13.000	-33.113	0.100
13.100	-24.460	0.100
13.200	-31.228	0.100
13.300	-26.861	0.100
13.400	-30.304	0.100
13.500	-36.741	0.100
13.600	-34.852	0.100
13.700	-19.928	0.100
13.800	-36.743	0.100
13.900	-40.172	0.100
14.000	-27.367	0.100
14.100	-28.802	0.100
14.200	-31.651	0.100
14.300	-28.531	0.100
14.400	-29.561	0.100
14.500	-29.962	0.100
14.600	-29.960	0.100
14.700	-39.314	0.100
14.800	-42.700	0.100
14.900	-36.228	0.100
15.000	-26.811	0.100
15.100	-22.539	0.100
15.200	-35.125	0.100
15.300	-32.658	0.100
15.400	-35.906	0.100
15.500	-32.564	0.100
15.600	-37.100	0.100
15.700	-35.243	0.100
15.800	-34.771	0.100
15.900	-36.943	0.100
16.000	-27.090	0.100
16.100	-34.244	0.100
16.200	-35.859	0.100
16.300	-18.297	0.100
16.400	-37.008	0.100
16.500	-32.738	0.100
16.600	-28.725	0.100
16.700	-29.179	0.100
16.800	-40.541	0.100
16.900	-30.836	0.100
17.000	-41.770	0.100
17.100	-27.057	0.100
17.200	-33.440	0.100
17.300	-31.560	0.100
17.400	-34.697	0.100
17.500	-45.793	0.100
17.600	-30.205	0.100
17.700	-29.779	0.100
17.800	-42.211	0.100
17.900	-29.984	0.100
18.000	-27.262	0.100
18.100	-22.768	0.100
18.200	-32.669	0.100
18.300	-30.634	0.100
18.400	-46.478	0.100
18.500	-41.360	0.100
18.600	-26.939	0.100
18.700	-41.747	0.100
18.800	-29.558	0.100
18.900	-24.684	0.100
19.000	-25.965	0.100
19.100	-36.959	0.100
19.200	-26.672	0.100
19.300	-32.983	0.100
19.400	-30.906	0.100
19.500	-35.196	0.100
19.600	-25.695	0.100
19.700	-36.064	0.100
19.800	-38.254	0.100
19.900	-34.181	0.100
20.000	-38.235	0.100
20.100	-38.129	0.100
20.200	-27.320	0.100
20.300	-33.432	0.100
20.400	-29.309	0.100
20.500	-29.008	0.100
20.600	-38.671	0.100
20.700	-53.916	0.100
20.800	-32.934	0.100
20.900	-24.669	0.100
21.000	-39.769	0.100
21.100	-32.743	0.100
21.200	-49.885	0.100
21.300	-48.314	0.100
21.400	-31.185	0.100
21.500	-50.794	0.100
21.600	-30.929	0.100
21.700	-31.592	0.100
21.800	-27.819	0.100
21.900	-16.394	0.100
22.000	-33.659	0.100
22.100	-34.610	0.100
22.200	-36.834	0.100
22.300	-40.949	0.100
22.400	-21.275	0.100
22.500	-32.763	0.100
22.600	-43.595	0.100
22.700	-39.357	0.100
22.800	-38.757	0.100
22.900	-32.500	0.100
23.000	-42.433	0.100
23.100	-41.199	0.100
23.200	-35.377	0.100
23.300	-31.180	0.100
23.400	-39.905	0.100
23.500	-39.593	0.100
23.600	-25.797	0.100
23.700	-26.305	0.100
23.800	-45.898	0.100
23.900	-26.586	0.100
24.000	-31.191	0.100
24.100	-29.604	0.100
24.200	-28.336	0.100
24.300	-28.487	0.100
24.400	-34.533	0.100
24.500	-39.863	0.100
24.600	-29.719	0.100
24.700	-33.783	0.100
24.800	-25.850	0.100
24.900	-21.886	0.100
25.000	-32.670	0.100
25.100	-27.263	0.100
25.200	-30.701	0.100
25.300	-45.858	0.100
25.400	-32.629	0.100
25.500	-22.483	0.100
25.600	-37.981	0.100
25.700	-36.329	0.100
25.800	-28.471	0.100
25.900	-29.252	0.100
26.000	-34.168	0.100
26.100	-36.861	0.100
26.200	-41.289	0.100
26.300	-30.143	0.100
26.400	-20.964	0.100
26.500	-33.909	0.100
26.600	-34.246	0.100
26.700	-39.260	0.100
26.800	-46.698	0.100
26.900	-33.152	0.100
27.000	-25.332	0.100
27.100	-39.864	0.100
27.200	-33.272	0.100
27.300	-33.114	0.100
27.400	-31.452	0.100
27.500	-30.086	0.100
27.600	-25.919	0.100
27.700	-37.391	0.100
27.800	-30.550	0.100
27.900	-21.573	0.100
28.000	-22.729	0.100
28.100	-33.491	0.100
28.200	-22.768	0.100
28.300	-29.006	0.100
28.400	-40.771	0.100
28.500	-36.043	0.100
28.600	-31.587	0.100
28.700	-26.685	0.100
28.800	-29.627	0.100
28.900	-34.364	0.100
29.000	-30.128	0.100
29.100	-21.691	0.100
29.200	-30.504	0.100
29.300	-21.619	0.100
29.400	-24.629	0.100
29.500	-50.864	0.100
29.600	-48.510	0.100
29.700	-36.264	0.100
29.800	-22.455	0.100
29.900	-21.865	0.100
30.000	-34.218	0.100
30.100	-42.973	0.100
30.200	-22.643	0.100
30.300	-19.489	0.100
30.400	-35.658	0.100
30.500	-26.998	0.100
30.600	-34.031	0.100
30.700	-27.055	0.100
30.800	-27.197	0.100
30.900	-17.873	0.100
31.000	-21.598	0.100
31.100	-23.697	0.100
31.200	-26.963	0.100
31.300	-21.101	0.100
31.400	-31.793	0.100
31.500	-27.292	0.100
31.600	-8.107	0.100
31.700	-25.960	0.100
31.800	-11.954	0.100
31.900	-14.922	0.100
32.000	-14.007	0.100
32.100	-36.268	0.100
32.200	-7.977	0.100
32.300	-2.676	0.100
32.400	-15.543	0.100
32.500	-16.242	0.100
32.600	-21.112	0.100
32.700	-18.211	0.100
32.800	-6.775	0.100
32.900	-17.005	0.100
33.000	-16.554	0.100
33.100	-10.209	0.100
33.200	-14.922	0.100
33.300	-17.495	0.100
33.400	-11.608	0.100
33.500	2.115	0.100
33.600	-9.912	0.100
33.700	-13.509	0.100
33.800	-18.986	0.100
33.900	3.190	0.100
34.000	-12.859	0.100
34.100	-12.649	0.100
34.200	-18.264	0.100
34.300	-7.996	0.100
34.400	-15.758	0.100
34.500	-14.162	0.100
34.600	-26.086	0.100
34.700	-15.667	0.100
34.800	-2.694	0.100
34.900	-0.654	0.100
35.000	-10.324	0.100
35.100	-9.758	0.100
35.200	-10.343	0.100
35.300	-0.360	0.100
35.400	-12.992	0.100
35.500	-16.282	0.100
35.600	-15.243	0.100
35.700	-13.767	0.100
35.800	-3.243	0.100
35.900	-2.030	0.100
36.000	1.134	0.100
36.100	-0.537	0.100
36.200	-10.372	0.100
36.300	-8.266	0.100
36.400	-5.632	0.100
36.500	-7.406	0.100
36.600	-4.579	0.100
36.700	-6.806	0.100
36.800	-21.271	0.100
36.900	-9.403	0.100
37.000	-7.157	0.100
37.100	2.878	0.100
37.200	-1.030	0.100
37.300	-14.036	0.100
37.400	-6.847	0.100
37.500	-11.517	0.100
37.600	-9.511	0.100
37.700	-13.302	0.100
37.800	-9.308	0.100
37.900	-5.776	0.100
38.000	2.832	0.100
38.100	-0.261	0.100
38.200	-18.357	0.100
38.300	-21.734	0.100
38.400	-0.815	0.100
38.500	-11.157	0.100
38.600	8.001	0.100
38.700	-3.336	0.100
38.800	-0.122	0.100
38.900	2.776	0.100
39.000	-0.643	0.100
39.100	-5.424	0.100
39.200	-2.786	0.100
39.300	-16.213	0.100
39.400	5.492	0.100
39.500	-2.985	0.100
39.600	6.156	0.100
39.700	-2.290	0.100
39.800	6.398	0.100
39.900	-3.193	0.100
40.000	-5.556	0.100
40.100	0.724	0.100
40.200	-6.230	0.100
40.300	2.323	0.100
40.400	0.646	0.100
40.500	-0.920	0.100
40.600	6.058	0.100
40.700	1.840	0.100
40.800	7.187	0.100
40.900	-10.967	0.100
41.000	-6.036	0.100
41.100	-4.751	0.100
41.200	4.475	0.100
41.300	-7.123	0.100
41.400	5.388	0.100
41.500	3.133	0.100
41.600	2.684	0.100
41.700	-4.440	0.100
41.800	2.391	0.100
41.900	-10.886	0.100
42.000	0.085	0.100
42.100	-7.552	0.100
42.200	-2.326	0.100
42.300	1.734	0.100
42.400	-1.156	0.100
42.500	4.346	0.100
42.600	9.403	0.100
42.700	-1.193	0.100
42.800	4.263	0.100
42.900	4.464	0.100
43.000	0.742	0.100
43.100	2.396	0.100
43.200	-10.357	0.100
43.300	0.776	0.100
43.400	7.844	0.100
43.500	5.716	0.100
43.600	-7.797	0.100
43.700	-13.090	0.100
43.800	-0.106	0.100
43.900	3.023	0.100
44.000	10.340	0.100
44.100	4.124	0.100
44.200	10.661	0.100
44.300	-7.961	0.100
44.400	12.243	0.100
44.500	3.972	0.100
44.600	3.837	0.100
44.700	-4.117	0.100
44.800	5.938	0.100
44.900	12.933	0.100
45.000	0.172	0.100
45.100	2.608	0.100
45.200	5.857	0.100
45.300	4.696	0.100
45.400	21.577	0.100
45.500	5.211	0.100
45.600	-1.582	0.100
45.700	-5.612	0.100
45.800	7.460	0.100
45.900	5.538	0.100
46.000	14.445	0.100
46.100	6.093	0.100
46.200	9.432	0.100
46.300	-1.504	0.100
46.400	-3.198	0.100
46.500	12.604	0.100
46.600	7.156	0.100
46.700	10.904	0.100
46.800	1.501	0.100
46.900	11.962	0.100
47.000	14.021	0.100
47.100	-1.526	0.100
47.200	5.978	0.100
47.300	6.951	0.100
47.400	6.623	0.100
47.500	-16.099	0.100
47.600	12.008	0.100
47.700	4.099	0.100
47.800	-0.016	0.100
47.900	7.223	0.100
48.000	18.862	0.100
48.100	-12.592	0.100
48.200	10.153	0.100
48.300	6.109	0.100
48.400	15.347	0.100
48.500	22.256	0.100
48.600	-5.399	0.100
48.700	-11.783	0.100
48.800	2.492	0.100
48.900	8.471	0.100
49.000	12.937	0.100
49.100	-0.827	0.100
49.200	12.141	0.100
49.300	6.125	0.100
49.400	3.472	0.100
49.500	-1.548	0.100
49.600	8.597	0.100
49.700	11.200	0.100
49.800	11.683	0.100
49.900	22.032	0.100
50.000	6.231	0.100
50.100	-6.761	0.100
50.200	8.382	0.100
50.300	12.585	0.100
50.400	14.537	0.100
50.500	14.686	0.100
50.600	8.805	0.100
50.700	11.975	0.100
50.800	-1.842	0.100
50.900	7.696	0.100
51.000	1.200	0.100
51.100	15.407	0.100
51.200	22.249	0.100
51.300	3.758	0.100
51.400	2.299	0.100
51.500	5.789	0.100
51.600	-1.342	0.100
51.700	7.653	0.100
51.800	1.752	0.100
51.900	28.129	0.100
52.000	18.067	0.100
52.100	8.433	0.100
52.200	6.604	0.100
52.300	7.576	0.100
52.400	10.814	0.100
52.500	9.024	0.100
52.600	0.054	0.100
52.700	15.556	0.100
52.800	16.845	0.100
52.900	1.670	0.100
53.000	22.874	0.100
53.100	15.057	0.100
53.200	21.087	0.100
53.300	15.428	0.100
53.400	9.721	0.100
53.500	14.024	0.100
53.600	12.258	0.100
53.700	7.756	0.100
53.800	16.528	0.100
53.900	12.922	0.100
54.000	-0.284	0.100
54.100	18.011	0.100
54.200	12.373	0.100
54.300	17.979	0.100
54.400	10.550	0.100
54.500	10.452	0.100
54.600	15.744	0.100
54.700	14.724	0.100
54.800	-6.321	0.100
54.900	1.619	0.100
55.000	17.065	0.100
55.100	25.499	0.100
55.200	3.889	0.100
55.300	13.196	0.100
55.400	-7.149	0.100
55.500	9.398	0.100
55.600	17.093	0.100
55.700	16.155	0.100
55.800	8.111	0.100
55.900	0.985	0.100
56.000	11.860	0.100
56.100	13.367	0.100
56.200	18.737	0.100
56.300	9.781	0.100
56.400	11.420	0.100
56.500	15.072	0.100
56.600	19.490	0.100
56.700	16.166	0.100
56.800	22.665	0.100
56.900	4.373	0.100
57.000	11.464	0.100
57.100	9.758	0.100
57.200	11.916	0.100
57.300	20.511	0.100
57.400	22.373	0.100
57.500	23.137	0.100
57.600	10.655	0.100
57.700	3.407	0.100
57.800	20.812	0.100
57.900	18.697	0.100
58.000	22.369	0.100
58.100	24.603	0.100
58.200	20.423	0.100
58.300	24.818	0.100
58.400	26.375	0.100
58.500	0.200	0.100
58.600	12.775	0.100
58.700	34.256	0.100
58.800	14.164	0.100
58.900	17.313	0.100
59.000	15.171	0.100
59.100	13.651	0.100
59.200	14.828	0.100
59.300	10.055	0.100
59.400	24.181	0.100
59.500	26.002	0.100
59.600	19.330	0.100
59.700	21.093	0.100
59.800	10.499	0.100
59.900	24.911	0.100
60.000	17.266	0.100
60.100	13.618	0.100
60.200	15.032	0.100
60.300	17.615	0.100
60.400	18.296	0.100
60.500	28.305	0.100
60.600	33.341	0.100
60.700	23.986	0.100
60.800	17.834	0.100
60.900	19.829	0.100
61.000	11.365	0.100
61.100	3.180	0.100
61.200	16.013	0.100
61.300	26.500	0.100
61.400	24.607	0.100
61.500	24.783	0.100
61.600	12.831	0.100
61.700	13.067	0.100
61.800	18.796	0.100
61.900	34.942	0.100
62.000	21.468	0.100
62.100	28.903	0.100
62.200	20.837	0.100
62.300	17.341	0.100
62.400	22.084	0.100
62.500	18.857	0.100
62.600	26.979	0.100
62.700	19.766	0.100
62.800	16.979	0.100
62.900	12.160	0.100
63.000	13.270	0.100
63.100	26.775	0.100
63.200	30.477	0.100
63.300	16.301	0.100
63.400	16.924	0.100
63.500	18.172	0.100
63.600	20.096	0.100
63.700	30.524	0.100
63.800	23.947	0.100
63.900	20.076	0.100
64.000	16.100	0.100
64.100	14.678	0.100
64.200	27.588	0.100
64.300	17.326	0.100
64.400	28.766	0.100
64.500	13.610	0.100
64.600	20.472	0.100
64.700	20.670	0.100
64.800	27.130	0.100
64.900	31.676	0.100
65.000	30.286	0.100
65.100	24.567	0.100
65.200	22.326	0.100
65.300	17.071	0.100
65.400	14.425	0.100
65.500	8.856	0.100
65.600	26.907	0.100
65.700	24.619	0.100
65.800	34.693	0.100
65.900	21.498	0.100
66.000	25.077	0.100
66.100	19.410	0.100
66.200	29.671	0.100
66.300	37.992	0.100
66.400	22.529	0.100
66.500	25.019	0.100
66.600	33.602	0.100
66.700	24.949	0.100
66.800	35.510	0.100
66.900	19.048	0.100
67.000	24.431	0.100
67.100	20.219	0.100
67.200	29.728	0.100
67.300	27.267	0.100
67.400	18.901	0.100
67.500	36.439	0.100
67.600	26.576	0.100
67.700	25.270	0.100
67.800	16.420	0.100
67.900	26.019	0.100
68.000	31.352	0.100
68.100	10.141	0.100
68.200	26.585	0.100
68.300	34.580	0.100
68.400	20.906	0.100
68.500	28.517	0.100
68.600	27.585	0.100
68.700	25.664	0.100
68.800	32.062	0.100
68.900	25.401	0.100
69.000	30.957	0.100
69.100	15.925	0.100
69.200	30.097	0.100
69.300	33.199	0.100
69.400	22.405	0.100
69.500	31.209	0.100
69.600	20.394	0.100
69.700	26.242	0.100
69.800	29.822	0.100
69.900	33.968	0.100
70.000	37.781	0.100
70.100	28.689	0.100
70.200	28.870	0.100
70.300	29.258	0.100
70.400	20.848	0.100
70.500	30.425	0.100
70.600	26.590	0.100
70.700	34.303	0.100
70.800	32.044	0.100
70.900	31.476	0.100
71.000	34.985	0.100
71.100	25.382	0.100
71.200	16.560	0.100
71.300	21.397	0.100
71.400	27.504	0.100
71.500	37.826	0.100
71.600	24.901	0.100
71.700	28.969	0.100
71.800	28.638	0.100
71.900	16.557	0.100
72.000	31.977	0.100
72.100	18.902	0.100
72.200	36.674	0.100
72.300	36.820	0.100
72.400	32.936	0.100
72.500	16.373	0.100
72.600	26.889	0.100
72.700	38.580	0.100
72.800	33.514	0.100
72.900	26.373	0.100
73.000	33.724	0.100
73.100	27.132	0.100
73.200	47.473	0.100
73.300	38.638	0.100
73.400	29.303	0.100
73.500	39.409	0.100
73.600	30.996	0.100
73.700	29.398	0.100
73.800	16.425	0.100
73.900	30.926	0.100
74.000	26.085	0.100
74.100	28.002	0.100
74.200	29.721	0.100
74.300	40.195	0.100
74.400	43.188	0.100
74.500	36.301	0.100
74.600	18.588	0.100
74.700	34.221	0.100
74.800	30.925	0.100
74.900	19.024	0.100
75.000	32.971	0.100
75.100	36.252	0.100
75.200	33.915	0.100
75.300	32.527	0.100
75.400	37.321	0.100
75.500	39.390	0.100
75.600	30.523	0.100
75.700	32.519	0.100
75.800	30.247	0.100
75.900	35.500	0.100
76.000	38.405	0.100
76.100	28.625	0.100
76.200	30.811	0.100
76.300	29.828	0.100
76.400	48.210	0.100
76.500	33.740	0.100
76.600	29.083	0.100
76.700	33.247	0.100
76.800	41.482	0.100
76.900	24.623	0.100
77.000	32.650	0.100
77.100	40.236	0.100
77.200	38.620	0.100
77.300	25.083	0.100
77.400	21.862	0.100
77.500	34.165	0.100
77.600	25.752	0.100
77.700	31.069	0.100
77.800	31.369	0.100
77.900	45.350	0.100
78.000	34.090	0.100
78.100	30.056	0.100
78.200	46.295	0.100
78.300	36.121	0.100
78.400	32.157	0.100
78.500	32.771	0.100
78.600	37.321	0.100
78.700	29.024	0.100
78.800	29.719	0.100
78.900	35.217	0.100
79.000	40.182	0.100
79.100	26.542	0.100
79.200	31.677	0.100
79.300	41.253	0.100
79.400	25.442	0.100
79.500	24.901	0.100
79.600	47.193	0.100
79.700	42.714	0.100
79.800	40.394	0.100
79.900	40.168	0.100
80.000	42.197	0.100
80.100	30.104	0.100
80.200	40.961	0.100
80.300	35.889	0.100
80.400	31.672	0.100
80.500	35.866	0.100
80.600	42.435	0.100
80.700	27.826	0.100
80.800	37.560	0.100
80.900	37.325	0.100
81.000	45.208	0.100
81.100	34.919	0.100
81.200	25.291	0.100
81.300	43.409	0.100
81.400	34.118	0.100
81.500	38.386	0.100
81.600	19.569	0.100
81.700	29.411	0.100
81.800	39.176	0.100
81.900	43.983	0.100
82.000	38.456	0.100
82.100	36.342	0.100
82.200	29.319	0.100
82.300	42.283	0.100
82.400	36.867	0.100
82.500	30.687	0.100
82.600	58.715	0.100
82.700	38.248	0.100
82.800	41.225	0.100
82.900	34.804	0.100
83.000	22.441	0.100
83.100	39.868	0.100
83.200	35.745	0.100
83.300	40.681	0.100
83.400	34.793	0.100
83.500	42.151	0.100
83.600	38.111	0.100
83.700	47.002	0.100
83.800	29.810	0.100
83.900	39.908	0.100
84.000	28.819	0.100
84.100	36.292	0.100
84.200	46.459	0.100
84.300	47.120	0.100
84.400	52.673	0.100
84.500	31.479	0.100
84.600	47.898	0.100
84.700	45.616	0.100
84.800	35.769	0.100
84.900	36.221	0.100
85.000	45.160	0.100
85.100	39.678	0.100
85.200	36.852	0.100
85.300	38.809	0.100
85.400	36.671	0.100
85.500	31.965	0.100
85.600	37.171	0.100
85.700	39.174	0.100
85.800	35.781	0.100
85.900	28.855	0.100
86.000	41.375	0.100
86.100	30.916	0.100
86.200	36.518	0.100
86.300	43.550	0.100
86.400	36.565	0.100
86.500	34.520	0.100
86.600	42.522	0.100
86.700	37.287	0.100
86.800	35.611	0.100
86.900	34.369	0.100
87.000	28.962	0.100
87.100	32.197	0.100
87.200	24.925	0.100
87.300	41.179	0.100
87.400	43.266	0.100
87.500	37.901	0.100
87.600	21.816	0.100
87.700	51.212	0.100
87.800	44.748	0.100
87.900	33.297	0.100
88.000	40.343	0.100
88.100	45.937	0.100
88.200	41.058	0.100
88.300	33.050	0.100
88.400	31.199	0.100
88.500	38.214	0.100
88.600	42.539	0.100
88.700	44.423	0.100
88.800	39.107	0.100
88.900	27.817	0.100
89.000	23.991	0.100
89.100	51.000	0.100
89.200	50.115	0.100
89.300	49.294	0.100
89.400	60.910	0.100
89.500	39.138	0.100
89.600	34.159	0.100
89.700	40.068	0.100
89.800	36.761	0.100
89.900	40.878	0.100
90.000	45.223	0.100
90.100	30.843	0.100
90.200	36.419	0.100
90.300	35.743	0.100
90.400	29.717	0.100
90.500	47.952	0.100
90.600	42.018	0.100
90.700	46.129	0.100
90.800	36.956	0.100
90.900	37.148	0.100
91.000	27.584	0.100
91.100	31.214	0.100
91.200	37.208	0.100
91.300	32.504	0.100
91.400	36.342	0.100
91.500	37.233	0.100
91.600	33.102	0.100
91.700	30.276	0.100
91.800	32.263	0.100
91.900	34.888	0.100
92.000	24.162	0.100
92.100	17.531	0.100
92.200	15.550	0.100
92.300	21.315	0.100
92.400	33.404	0.100
92.500	28.167	0.100
92.600	24.084	0.100
92.700	30.329	0.100
92.800	41.492	0.100
92.900	26.386	0.100
93.000	33.332	0.100
93.100	33.452	0.100
93.200	31.099	0.100
93.300	24.730	0.100
93.400	29.017	0.100
93.500	20.367	0.100
93.600	12.534	0.100
93.700	29.483	0.100
93.800	29.781	0.100
93.900	35.059	0.100
94.000	17.847	0.100
94.100	25.592	0.100
94.200	18.636	0.100
94.300	21.026	0.100
