time /s	I /nA	E /V
0.100	-10.998	0.101
0.200	-3.834	0.101
0.300	-0.109	0.101
0.400	-17.620	0.101
0.500	-0.582	0.101
0.600	-8.300	0.101
0.700	-14.071	0.101
0.800	-1.611	0.101
0.900	-11.366	0.101
1.000	2.935	0.101
1.100	-1.597	0.101
1.200	-12.506	0.101
1.300	-17.951	0.101
1.400	-8.297	0.101
1.500	-8.940	0.101
1.600	-14.500	0.101
1.700	4.217	0.101
1.800	12.119	0.101
1.900	-5.687	0.101
2.000	-5.216	0.101
2.100	-8.415	0.101
2.200	-4.885	0.101
2.300	-4.207	0.101
2.400	-9.299	0.101
2.500	-11.920	0.101
2.600	-2.588	0.101
2.700	-9.977	0.101
2.800	-3.952	0.101
2.900	6.791	0.101
3.000	-10.893	0.101
3.100	-11.794	0.101
3.200	-2.396	0.101
3.300	-0.179	0.101
3.400	-13.872	0.101
3.500	-2.950	0.101
3.600	-9.778	0.101
3.700	6.018	0.101
3.800	-3.377	0.101
3.900	6.840	0.101
4.000	-9.546	0.101
4.100	0.839	0.101
4.200	-10.659	0.101
4.300	-0.561	0.101
4.400	4.361	0.101
4.500	-10.414	0.101
4.600	-9.854	0.101
4.700	-6.702	0.101
4.800	2.881	0.101
4.900	-13.945	0.101
5.000	-3.162	0.101
5.100	3.167	0.101
5.200	-5.057	0.101
5.300	-1.647	0.101
5.400	-5.811	0.101
5.500	-9.054	0.101
5.600	-12.767	0.101
5.700	-5.024	0.101
5.800	-15.979	0.101
5.900	-15.954	0.101
6.000	-5.368	0.101
6.100	-6.670	0.101
6.200	-8.672	0.101
6.300	-18.173	0.101
6.400	1.313	0.101
6.500	-14.740	0.101
6.600	-16.306	0.101
6.700	-3.376	0.101
6.800	3.917	0.101
6.900	-6.982	0.101
7.000	2.549	0.101
7.100	-6.054	0.101
7.200	-12.361	0.101
7.300	-2.948	0.101
7.400	-7.135	0.101
7.500	-5.087	0.101
7.600	-4.471	0.101
7.700	-1.803	0.101
7.800	-1.284	0.101
7.900	-8.786	0.101
8.000	-1.013	0.101
8.100	-0.221	0.101
8.200	-1.653	0.101
8.300	-4.596	0.101
8.400	-15.260	0.101
8.500	-13.619	0.101
8.600	-0.506	0.101
8.700	-13.220	0.101
8.800	-11.490	0.101
8.900	-5.052	0.101
9.000	-9.092	0.101
9.100	-2.422	0.101
9.200	-7.264	0.101
9.300	-8.528	0.101
9.400	-16.464	0.101
9.500	3.769	0.101
9.600	3.897	0.101
9.700	0.350	0.101
9.800	-8.570	0.101
9.900	-6.146	0.101
10.000	6.560	0.101
10.100	-11.032	0.101
10.200	-3.066	0.101
10.300	-9.845	0.101
10.400	-0.044	0.101
10.500	-4.711	0.101
10.600	-29.052	0.101
10.700	-6.749	0.101
10.800	-8.518	0.101
10.900	-6.329	0.101
11.000	-1.253	0.101
11.100	-9.591	0.101
11.200	-9.338	0.101
11.300	3.629	0.101
11.400	-7.739	0.101
11.500	4.334	0.101
11.600	-9.025	0.101
11.700	-4.155	0.101
11.800	-17.560	0.101
11.900	3.048	0.101
12.000	-5.893	0.101
12.100	-5.489	0.101
12.200	-2.801	0.101
12.300	-9.237	0.101
12.400	-8.454	0.101
12.500	-19.709	0.101
12.600	-8.425	0.101
12.700	-13.868	0.101
12.800	-4.485	0.101
12.900	-19.185	0.101
13.000	-6.456	0.101
13.100	-9.045	0.101
13.200	0.435	0.101
13.300	-12.844	0.101
13.400	-10.750	0.101
13.500	-19.998	0.101
13.600	-1.282	0.101
13.700	1.736	0.101
13.800	-4.982	0.101
13.900	-9.629	0.101
14.000	-1.864	0.101
14.100	-6.730	0.101
14.200	-12.201	0.101
14.300	-2.482	0.101
14.400	-2.895	0.101
14.500	4.524	0.101
14.600	-8.106	0.101
14.700	0.352	0.101
14.800	-0.642	0.101
14.900	-4.448	0.101
15.000	-0.982	0.101
15.100	3.302	0.101
15.200	-17.771	0.101
15.300	-3.177	0.101
15.400	-15.054	0.101
15.500	-6.205	0.101
15.600	1.992	0.101
15.700	3.880	0.101
15.800	5.706	0.101
15.900	-34.339	0.101
16.000	-1.574	0.101
16.100	10.005	0.101
16.200	-9.405	0.101
16.300	-5.578	0.101
16.400	1.475	0.101
16.500	-2.860	0.101
16.600	-4.824	0.101
16.700	8.585	0.101
16.800	-8.506	0.101
16.900	3.935	0.101
17.000	-15.852	0.101
17.100	-13.844	0.101
17.200	-0.511	0.101
17.300	1.014	0.101
17.400	-2.148	0.101
17.500	0.452	0.101
17.600	-13.873	0.101
17.700	-4.106	0.101
17.800	-17.353	0.101
17.900	-6.456	0.101
18.000	3.974	0.101
18.100	-18.048	0.101
18.200	3.014	0.101
18.300	-10.278	0.101
18.400	-4.025	0.101
18.500	-4.807	0.101
18.600	-4.839	0.101
18.700	-8.466	0.101
18.800	-9.674	0.101
18.900	-8.210	0.101
19.000	6.722	0.101
19.100	2.363	0.101
19.200	-15.776	0.101
19.300	-17.430	0.101
19.400	-14.808	0.101
19.500	-13.471	0.101
19.600	3.477	0.101
19.700	2.796	0.101
19.800	-1.910	0.101
19.900	0.262	0.101
20.000	-2.825	0.101
20.100	-8.974	0.101
20.200	-1.391	0.101
20.300	-14.097	0.101
20.400	2.569	0.101
20.500	-19.183	0.101
20.600	-3.736	0.101
20.700	-3.881	0.101
20.800	-6.377	0.101
20.900	-3.045	0.101
21.000	-7.830	0.101
21.100	-5.852	0.101
21.200	-2.564	0.101
21.300	-9.296	0.101
21.400	-10.338	0.101
21.500	-12.786	0.101
21.600	-1.882	0.101
21.700	-1.555	0.101
21.800	-8.086	0.101
21.900	3.781	0.101
22.000	-12.689	0.101
22.100	-3.167	0.101
22.200	-18.607	0.101
22.300	-12.179	0.101
22.400	-3.679	0.101
22.500	-17.338	0.101
22.600	-15.564	0.101
22.700	10.496	0.101
22.800	5.121	0.101
22.900	-14.219	0.101
23.000	-6.884	0.101
23.100	-5.009	0.101
23.200	-8.042	0.101
23.300	-6.617	0.101
23.400	-20.316	0.101
23.500	-12.288	0.101
23.600	-2.343	0.101
23.700	1.815	0.101
23.800	1.346	0.101
23.900	-4.946	0.101
24.000	-19.899	0.101
24.100	5.530	0.101
24.200	-0.041	0.101
24.300	-11.567	0.101
24.400	-12.682	0.101
24.500	-7.048	0.101
24.600	1.456	0.101
24.700	-11.338	0.101
24.800	-3.927	0.101
24.900	-3.435	0.101
25.000	0.846	0.101
25.100	-18.873	0.101
25.200	-0.190	0.101
25.300	-11.111	0.101
25.400	0.870	0.101
25.500	-3.489	0.101
25.600	-7.302	0.101
25.700	-5.806	0.101
25.800	-6.239	0.101
25.900	-3.996	0.101
26.000	4.375	0.101
26.100	-10.435	0.101
26.200	4.529	0.101
26.300	-1.902	0.101
26.400	-3.510	0.101
26.500	-16.067	0.101
26.600	-18.149	0.101
26.700	-13.193	0.101
26.800	5.825	0.101
26.900	-8.871	0.101
27.000	-8.499	0.101
27.100	-14.643	0.101
27.200	0.625	0.101
27.300	-9.391	0.101
27.400	-2.954	0.101
27.500	1.142	0.101
27.600	4.927	0.101
27.700	4.122	0.101
27.800	5.473	0.101
27.900	-2.758	0.101
28.000	-22.778	0.101
28.100	-15.595	0.101
28.200	-2.530	0.101
28.300	-7.989	0.101
28.400	-4.988	0.101
28.500	-6.121	0.101
28.600	-16.290	0.101
28.700	5.684	0.101
28.800	-6.900	0.101
28.900	-15.765	0.101
29.000	-20.937	0.101
29.100	-1.537	0.101
29.200	-0.635	0.101
29.300	4.737	0.101
29.400	-19.964	0.101
29.500	0.652	0.101
29.600	-1.316	0.101
29.700	6.732	0.101
29.800	3.277	0.101
29.900	-22.124	0.101
30.000	-8.036	0.101
30.100	-1.059	0.101
30.200	-0.200	0.101
30.300	-5.645	0.101
30.400	-5.825	0.101
30.500	4.074	0.101
30.600	-5.559	0.101
30.700	-0.624	0.101
30.800	5.635	0.101
30.900	11.630	0.101
31.000	6.350	0.101
31.100	-4.459	0.101
31.200	5.597	0.101
31.300	-9.567	0.101
31.400	-16.646	0.101
31.500	-6.899	0.101
31.600	5.892	0.101
31.700	1.093	0.101
31.800	-1.721	0.101
31.900	-6.564	0.101
32.000	6.214	0.101
32.100	7.416	0.101
32.200	-8.600	0.101
32.300	5.765	0.101
32.400	-6.751	0.101
32.500	-5.889	0.101
32.600	-0.686	0.101
32.700	0.036	0.101
32.800	-9.918	0.101
32.900	6.110	0.101
33.000	6.783	0.101
33.100	-10.161	0.101
33.200	-9.536	0.101
33.300	-11.993	0.101
33.400	-3.774	0.101
33.500	8.034	0.101
33.600	7.573	0.101
33.700	3.570	0.101
33.800	4.785	0.101
33.900	1.892	0.101
34.000	-6.645	0.101
34.100	3.079	0.101
34.200	-5.133	0.101
34.300	11.328	0.101
34.400	11.868	0.101
34.500	1.623	0.101
34.600	4.262	0.101
34.700	-5.930	0.101
34.800	3.986	0.101
34.900	0.851	0.101
35.000	-5.490	0.101
35.100	-7.767	0.101
35.200	-5.840	0.101
35.300	13.839	0.101
35.400	-6.631	0.101
35.500	15.818	0.101
35.600	-4.493	0.101
35.700	1.788	0.101
35.800	14.397	0.101
35.900	-2.713	0.101
36.000	6.263	0.101
36.100	1.748	0.101
36.200	-3.758	0.101
36.300	2.963	0.101
36.400	-1.453	0.101
36.500	3.909	0.101
36.600	6.521	0.101
36.700	4.965	0.101
36.800	1.150	0.101
36.900	12.188	0.101
37.000	-3.248	0.101
37.100	7.208	0.101
37.200	18.351	0.101
37.300	24.826	0.101
37.400	2.174	0.101
37.500	14.569	0.101
37.600	-0.821	0.101
37.700	-8.495	0.101
37.800	3.922	0.101
37.900	3.278	0.101
38.000	14.416	0.101
38.100	27.939	0.101
38.200	2.160	0.101
38.300	-4.099	0.101
38.400	5.951	0.101
38.500	1.193	0.101
38.600	14.929	0.101
38.700	-4.052	0.101
38.800	4.011	0.101
38.900	2.797	0.101
39.000	10.308	0.101
39.100	12.585	0.101
39.200	0.353	0.101
39.300	-4.762	0.101
39.400	13.794	0.101
39.500	8.863	0.101
39.600	5.519	0.101
39.700	6.319	0.101
39.800	6.708	0.101
39.900	4.414	0.101
40.000	15.398	0.101
40.100	6.354	0.101
40.200	3.603	0.101
40.300	16.322	0.101
40.400	6.917	0.101
40.500	-0.100	0.101
40.600	9.850	0.101
40.700	4.113	0.101
40.800	12.913	0.101
40.900	16.497	0.101
41.000	9.501	0.101
41.100	-5.960	0.101
41.200	4.257	0.101
41.300	17.414	0.101
41.400	3.006	0.101
41.500	4.868	0.101
41.600	-0.283	0.101
41.700	2.907	0.101
41.800	0.776	0.101
41.900	14.532	0.101
42.000	2.608	0.101
42.100	14.946	0.101
42.200	8.422	0.101
42.300	12.368	0.101
42.400	4.363	0.101
42.500	-6.973	0.101
42.600	5.088	0.101
42.700	9.752	0.101
42.800	-1.751	0.101
42.900	7.045	0.101
43.000	7.653	0.101
43.100	6.925	0.101
43.200	4.344	0.101
43.300	-6.890	0.101
43.400	5.883	0.101
43.500	-9.942	0.101
43.600	13.372	0.101
43.700	4.935	0.101
43.800	12.643	0.101
43.900	-0.705	0.101
44.000	3.148	0.101
44.100	-9.183	0.101
44.200	4.260	0.101
44.300	-5.028	0.101
44.400	-6.589	0.101
44.500	2.890	0.101
44.600	9.316	0.101
44.700	15.043	0.101
44.800	-6.672	0.101
44.900	4.440	0.101
45.000	3.229	0.101
45.100	-2.345	0.101
45.200	7.088	0.101
45.300	3.816	0.101
45.400	9.663	0.101
45.500	10.887	0.101
45.600	5.632	0.101
45.700	8.423	0.101
45.800	10.001	0.101
45.900	-3.722	0.101
46.000	-2.327	0.101
46.100	4.143	0.101
46.200	5.331	0.101
46.300	-1.113	0.101
46.400	-3.070	0.101
46.500	2.346	0.101
46.600	-14.075	0.101
46.700	5.944	0.101
46.800	22.258	0.101
46.900	3.943	0.101
47.000	3.958	0.101
47.100	6.087	0.101
47.200	7.892	0.101
47.300	0.040	0.101
47.400	-2.903	0.101
47.500	26.821	0.101
47.600	-3.785	0.101
47.700	11.474	0.101
47.800	12.373	0.101
47.900	-0.985	0.101
48.000	10.098	0.101
48.100	12.611	0.101
48.200	-8.972	0.101
48.300	3.496	0.101
48.400	2.310	0.101
48.500	5.980	0.101
48.600	2.181	0.101
48.700	-0.507	0.101
48.800	-14.581	0.101
48.900	-0.844	0.101
49.000	9.823	0.101
49.100	9.027	0.101
49.200	8.341	0.101
49.300	-7.271	0.101
49.400	1.123	0.101
49.500	-4.377	0.101
49.600	-3.319	0.101
49.700	-2.751	0.101
49.800	9.512	0.101
49.900	8.673	0.101
50.000	15.577	0.101
50.100	-0.458	0.101
50.200	-4.451	0.101
50.300	19.396	0.101
50.400	-5.204	0.101
50.500	-9.853	0.101
50.600	2.681	0.101
50.700	17.599	0.101
50.800	-3.475	0.101
50.900	1.307	0.101
51.000	13.937	0.101
51.100	6.637	0.101
51.200	0.722	0.101
51.300	1.639	0.101
51.400	2.673	0.101
51.500	5.752	0.101
51.600	-7.590	0.101
51.700	-9.578	0.101
51.800	3.992	0.101
51.900	-10.905	0.101
52.000	14.310	0.101
52.100	1.047	0.101
52.200	-5.552	0.101
52.300	7.923	0.101
52.400	3.250	0.101
52.500	1.862	0.101
52.600	-9.075	0.101
52.700	9.782	0.101
52.800	3.977	0.101
52.900	-14.470	0.101
53.000	4.324	0.101
53.100	21.272	0.101
53.200	5.686	0.101
53.300	2.786	0.101
53.400	-1.481	0.101
53.500	-3.428	0.101
53.600	-11.650	0.101
53.700	10.756	0.101
53.800	4.511	0.101
53.900	-2.094	0.101
54.000	5.544	0.101
54.100	8.850	0.101
54.200	5.212	0.101
54.300	-1.224	0.101
54.400	1.049	0.101
54.500	-0.764	0.101
54.600	-11.609	0.101
54.700	-0.262	0.101
54.800	-2.459	0.101
54.900	-5.291	0.101
55.000	11.396	0.101
55.100	5.244	0.101
55.200	11.329	0.101
55.300	-14.849	0.101
55.400	5.971	0.101
55.500	5.786	0.101
55.600	0.392	0.101
55.700	0.870	0.101
55.800	8.938	0.101
55.900	3.423	0.101
56.000	13.129	0.101
56.100	8.899	0.101
56.200	-2.519	0.101
56.300	-15.949	0.101
56.400	1.194	0.101
56.500	16.078	0.101
56.600	0.363	0.101
56.700	7.003	0.101
56.800	3.404	0.101
56.900	5.235	0.101
57.000	-2.737	0.101
57.100	-8.353	0.101
57.200	9.823	0.101
57.300	1.517	0.101
57.400	10.121	0.101
57.500	-9.251	0.101
57.600	1.286	0.101
57.700	5.715	0.101
57.800	5.020	0.101
57.900	-5.842	0.101
58.000	-7.930	0.101
58.100	11.220	0.101
58.200	-2.515	0.101
58.300	-0.946	0.101
58.400	2.096	0.101
58.500	-1.411	0.101
58.600	4.103	0.101
58.700	-0.052	0.101
58.800	6.456	0.101
58.900	-6.050	0.101
59.000	3.519	0.101
59.100	7.200	0.101
59.200	12.596	0.101
59.300	5.796	0.101
59.400	2.246	0.101
59.500	11.470	0.101
59.600	-1.039	0.101
59.700	-10.319	0.101
59.800	-4.719	0.101
59.900	-1.724	0.101
60.000	-0.767	0.101
60.100	8.811	0.101
60.200	10.351	0.101
60.300	-8.710	0.101
60.400	1.039	0.101
60.500	2.790	0.101
60.600	8.693	0.101
60.700	5.582	0.101
60.800	-0.961	0.101
60.900	6.347	0.101
61.000	0.366	0.101
61.100	7.000	0.101
61.200	9.314	0.101
61.300	5.499	0.101
61.400	-7.563	0.101
61.500	6.212	0.101
61.600	3.275	0.101
61.700	3.043	0.101
61.800	1.472	0.101
61.900	16.151	0.101
62.000	-12.332	0.101
62.100	7.088	0.101
62.200	-4.570	0.101
62.300	3.102	0.101
62.400	-4.938	0.101
62.500	17.266	0.101
62.600	5.945	0.101
62.700	-11.850	0.101
62.800	8.276	0.101
62.900	0.020	0.101
63.000	10.014	0.101
63.100	11.029	0.101
63.200	-8.303	0.101
63.300	0.112	0.101
63.400	7.101	0.101
63.500	2.745	0.101
63.600	8.373	0.101
63.700	-1.197	0.101
63.800	2.935	0.101
63.900	5.064	0.101
64.000	0.527	0.101
64.100	9.133	0.101
64.200	7.776	0.101
64.300	16.241	0.101
64.400	3.281	0.101
64.500	-7.347	0.101
64.600	-9.687	0.101
64.700	5.863	0.101
64.800	5.945	0.101
64.900	13.585	0.101
65.000	-2.911	0.101
65.100	13.886	0.101
65.200	10.828	0.101
65.300	0.310	0.101
65.400	-12.634	0.101
65.500	-1.350	0.101
65.600	19.246	0.101
65.700	-2.759	0.101
65.800	8.536	0.101
65.900	1.991	0.101
66.000	4.457	0.101
66.100	-10.312	0.101
66.200	2.287	0.101
66.300	4.482	0.101
66.400	14.766	0.101
66.500	12.125	0.101
66.600	0.291	0.101
66.700	13.634	0.101
66.800	2.386	0.101
66.900	1.908	0.101
67.000	8.415	0.101
67.100	-7.957	0.101
67.200	15.561	0.101
67.300	3.895	0.101
67.400	2.482	0.101
67.500	-3.614	0.101
67.600	8.109	0.101
67.700	18.242	0.101
67.800	1.227	0.101
67.900	13.882	0.101
68.000	12.897	0.101
68.100	5.653	0.101
68.200	14.237	0.101
68.300	1.776	0.101
68.400	2.065	0.101
68.500	1.378	0.101
68.600	-2.305	0.101
68.700	2.398	0.101
68.800	16.984	0.101
68.900	17.211	0.101
69.000	6.785	0.101
69.100	-4.254	0.101
69.200	1.201	0.101
69.300	-4.988	0.101
69.400	-4.996	0.101
69.500	7.758	0.101
69.600	7.807	0.101
69.700	0.489	0.101
69.800	-4.706	0.101
69.900	15.945	0.101
70.000	12.469	0.101
70.100	1.066	0.101
70.200	14.124	0.101
70.300	4.291	0.101
70.400	10.514	0.101
70.500	14.524	0.101
70.600	7.351	0.101
70.700	0.187	0.101
70.800	1.985	0.101
70.900	-1.637	0.101
71.000	-0.903	0.101
71.100	-10.112	0.101
71.200	9.076	0.101
71.300	11.446	0.101
71.400	5.115	0.101
71.500	23.820	0.101
71.600	-3.906	0.101
71.700	4.116	0.101
71.800	0.954	0.101
71.900	2.348	0.101
72.000	-2.332	0.101
72.100	-2.315	0.101
72.200	5.421	0.101
72.300	3.516	0.101
72.400	6.609	0.101
72.500	7.503	0.101
72.600	8.076	0.101
72.700	1.557	0.101
72.800	20.238	0.101
72.900	-1.377	0.101
73.000	-3.452	0.101
73.100	-4.833	0.101
73.200	8.141	0.101
73.300	15.316	0.101
73.400	-5.864	0.101
73.500	13.185	0.101
73.600	3.815	0.101
73.700	14.403	0.101
73.800	3.615	0.101
73.900	2.722	0.101
74.000	-3.315	0.101
74.100	13.250	0.101
74.200	6.343	0.101
74.300	7.180	0.101
74.400	-17.920	0.101
74.500	-5.145	0.101
74.600	17.596	0.101
74.700	-7.387	0.101
74.800	6.844	0.101
74.900	21.548	0.101
75.000	-2.414	0.101
75.100	5.730	0.101
75.200	-12.293	0.101
75.300	7.486	0.101
75.400	5.258	0.101
75.500	8.027	0.101
75.600	1.003	0.101
75.700	7.903	0.101
75.800	17.392	0.101
75.900	2.740	0.101
76.000	-4.771	0.101
76.100	5.425	0.101
76.200	-3.700	0.101
76.300	3.998	0.101
76.400	5.016	0.101
76.500	3.135	0.101
76.600	-3.133	0.101
76.700	5.572	0.101
76.800	4.799	0.101
76.900	0.563	0.101
77.000	11.489	0.101
77.100	8.743	0.101
77.200	-1.450	0.101
77.300	0.653	0.101
77.400	-3.263	0.101
77.500	17.063	0.101
77.600	5.948	0.101
77.700	-0.696	0.101
77.800	5.088	0.101
77.900	19.941	0.101
78.000	5.962	0.101
78.100	-8.080	0.101
78.200	13.383	0.101
78.300	12.359	0.101
78.400	13.039	0.101
78.500	0.836	0.101
78.600	6.149	0.101
78.700	-2.968	0.101
78.800	4.791	0.101
78.900	3.308	0.101
79.000	-6.577	0.101
79.100	10.282	0.101
79.200	7.478	0.101
79.300	7.849	0.101
79.400	8.140	0.101
79.500	4.183	0.101
79.600	-9.205	0.101
79.700	2.739	0.101
79.800	-13.389	0.101
79.900	7.014	0.101
80.000	12.412	0.101
80.100	8.247	0.101
80.200	19.825	0.101
80.300	-3.035	0.101
80.400	-6.986	0.101
80.500	8.892	0.101
80.600	-1.627	0.101
80.700	12.569	0.101
80.800	10.297	0.101
80.900	11.194	0.101
81.000	2.034	0.101
81.100	0.410	0.101
81.200	12.564	0.101
81.300	6.847	0.101
81.400	9.194	0.101
81.500	5.424	0.101
81.600	5.796	0.101
81.700	1.195	0.101
81.800	8.303	0.101
81.900	3.454	0.101
82.000	-0.079	0.101
82.100	-2.756	0.101
82.200	13.694	0.101
82.300	3.762	0.101
82.400	-8.493	0.101
82.500	13.911	0.101
82.600	-2.584	0.101
82.700	-3.920	0.101
82.800	9.020	0.101
82.900	-11.680	0.101
83.000	-20.162	0.101
83.100	15.084	0.101
83.200	3.954	0.101
83.300	4.633	0.101
83.400	1.635	0.101
83.500	-3.622	0.101
83.600	11.481	0.101
83.700	10.525	0.101
83.800	13.054	0.101
83.900	8.057	0.101
84.000	13.426	0.101
84.100	5.097	0.101
84.200	3.432	0.101
84.300	-6.314	0.101
84.400	-13.041	0.101
84.500	9.551	0.101
84.600	6.264	0.101
84.700	5.693	0.101
84.800	9.554	0.101
84.900	-16.112	0.101
85.000	23.648	0.101
85.100	3.302	0.101
85.200	0.327	0.101
85.300	-2.807	0.101
85.400	12.026	0.101
85.500	-6.461	0.101
85.600	17.558	0.101
85.700	8.576	0.101
85.800	6.443	0.101
85.900	-1.719	0.101
86.000	12.985	0.101
86.100	7.581	0.101
86.200	2.371	0.101
86.300	6.447	0.101
86.400	-1.163	0.101
86.500	2.278	0.101
86.600	9.440	0.101
86.700	12.907	0.101
86.800	4.492	0.101
86.900	4.525	0.101
87.000	-3.583	0.101
87.100	20.999	0.101
87.200	15.197	0.101
87.300	4.852	0.101
87.400	6.171	0.101
87.500	-1.253	0.101
87.600	4.109	0.101
87.700	3.470	0.101
87.800	15.418	0.101
87.900	8.783	0.101
88.000	-10.808	0.101
88.100	2.622	0.101
88.200	14.923	0.101
88.300	10.014	0.101
88.400	-5.830	0.101
88.500	10.069	0.101
88.600	0.452	0.101
88.700	4.503	0.101
88.800	4.825	0.101
88.900	6.506	0.101
89.000	9.086	0.101
89.100	11.204	0.101
89.200	3.884	0.101
89.300	4.022	0.101
89.400	19.961	0.101
89.500	-1.381	0.101
89.600	-5.056	0.101
89.700	11.176	0.101
89.800	-1.127	0.101
89.900	5.923	0.101
90.000	2.321	0.101
90.100	0.525	0.101
90.200	0.559	0.101
90.300	14.310	0.101
90.400	7.668	0.101
90.500	-3.066	0.101
90.600	17.243	0.101
90.700	2.775	0.101
90.800	0.336	0.101
90.900	-8.526	0.101
91.000	-10.477	0.101
91.100	-2.506	0.101
91.200	-2.447	0.101
91.300	3.764	0.101
91.400	-6.999	0.101
91.500	-1.157	0.101
91.600	9.972	0.101
91.700	0.642	0.101
91.800	-2.832	0.101
91.900	-0.900	0.101
92.000	-6.021	0.101
92.100	-0.613	0.101
92.200	-3.643	0.101
92.300	-3.087	0.101
92.400	-10.858	0.101
92.500	-6.858	0.101
92.600	-0.407	0.101
92.700	1.685	0.101
92.800	0.002	0.101
92.900	-1.457	0.101
93.000	-9.400	0.101
93.100	-9.448	0.101
93.200	-8.092	0.101
93.300	-2.356	0.101
93.400	-3.527	0.101
93.500	-10.148	0.101
93.600	-2.833	0.101
93.700	-8.748	0.101
93.800	10.807	0.101
93.900	-7.358	0.101
94.000	-2.725	0.101
94.100	-14.890	0.101
94.200	-4.552	0.101
94.300	-5.357	0.101
94.400	0.753	0.101
94.500	-11.195	0.101
94.600	-6.546	0.101
94.700	-12.591	0.101
94.800	-11.387	0.101
94.900	-0.333	0.101
95.000	-6.326	0.101
95.100	-11.918	0.101
95.200	-2.411	0.101
95.300	2.550	0.101
95.400	-13.206	0.101
95.500	-7.080	0.101
95.600	-0.443	0.101
95.700	-9.761	0.101
95.800	-5.745	0.101
95.900	-0.897	0.101
96.000	-2.176	0.101
96.100	5.611	0.101
96.200	-4.893	0.101
96.300	-2.796	0.101
96.400	-8.176	0.101
96.500	-14.214	0.101
96.600	-11.781	0.101
96.700	-11.305	0.101
96.800	1.722	0.101
