time /s	I /nA	E /V
0.100	18.144	0.101
0.200	-44.571	0.100
0.300	-4.282	0.100
0.400	-9.899	0.100
0.500	11.059	0.100
0.600	3.690	0.100
0.700	-65.529	0.100
0.800	-18.308	0.100
0.900	15.355	0.100
1.000	11.057	0.100
1.100	2.429	0.100
1.200	-16.846	0.101
1.300	-1.838	0.100
1.400	-2.481	0.100
1.500	0.073	0.100
1.600	-41.163	0.100
1.700	17.869	0.100
1.800	-1.386	0.100
1.900	-22.150	0.100
2.000	3.568	0.100
2.100	-4.483	0.100
2.200	25.879	0.100
2.300	-32.170	0.100
2.400	-15.936	0.100
2.500	-4.323	0.100
2.600	-14.474	0.100
2.700	4.297	0.100
2.800	-29.973	0.101
2.900	-6.578	0.100
3.000	-17.963	0.100
3.100	-1.362	0.100
3.200	-29.351	0.100
3.300	7.882	0.100
3.400	-9.746	0.100
3.500	-8.810	0.100
3.600	8.068	0.100
3.700	-3.790	0.100
3.800	-22.922	0.100
3.900	-13.478	0.100
4.000	-6.381	0.100
4.100	37.509	0.100
4.200	-2.451	0.100
4.300	9.270	0.100
4.400	18.074	0.101
4.500	1.755	0.100
4.600	28.410	0.100
4.700	3.136	0.100
4.800	-11.694	0.101
4.900	-21.671	0.100
5.000	25.020	0.100
5.100	-41.715	0.100
5.200	-34.606	0.100
5.300	-1.302	0.100
5.400	-9.670	0.100
5.500	-9.364	0.100
5.600	-5.059	0.100
5.700	8.912	0.100
5.800	-17.115	0.100
5.900	-5.264	0.100
6.000	9.769	0.100
6.100	3.782	0.101
6.200	-14.391	0.100
6.300	12.004	0.100
6.400	-27.611	0.100
6.500	-4.903	0.101
6.600	-17.764	0.100
6.700	3.284	0.100
6.800	-2.466	0.101
6.900	27.820	0.100
7.000	-2.616	0.100
7.100	-7.993	0.100
7.200	-18.729	0.100
7.300	-11.289	0.100
7.400	-12.815	0.100
7.500	30.228	0.100
7.600	-11.165	0.100
7.700	-27.445	0.100
7.800	-2.552	0.100
7.900	-11.198	0.100
8.000	-11.813	0.100
8.100	-3.076	0.100
8.200	-24.445	0.100
8.300	10.485	0.100
8.400	-35.699	0.100
8.500	8.365	0.101
8.600	-28.604	0.100
8.700	9.448	0.100
8.800	7.327	0.100
8.900	-33.080	0.100
9.000	3.683	0.100
9.100	-2.469	0.100
9.200	3.415	0.100
9.300	5.450	0.100
9.400	-10.643	0.100
9.500	-27.576	0.100
9.600	-13.162	0.100
9.700	-9.468	0.100
9.800	11.023	0.100
9.900	-5.353	0.100
10.000	-13.462	0.100
10.100	-23.104	0.100
10.200	23.341	0.100
10.300	-8.144	0.100
10.400	-6.719	0.100
10.500	-2.345	0.100
10.600	19.990	0.100
10.700	1.981	0.100
10.800	-10.859	0.100
10.900	-21.024	0.100
11.000	1.764	0.100
11.100	-9.467	0.100
11.200	-34.965	0.100
11.300	10.471	0.100
11.400	-23.682	0.100
11.500	0.164	0.100
11.600	9.465	0.100
11.700	21.382	0.100
11.800	13.826	0.100
11.900	-49.752	0.100
12.000	5.085	0.100
12.100	7.461	0.100
12.200	1.717	0.100
12.300	-3.669	0.100
12.400	-17.776	0.100
12.500	-25.112	0.100
12.600	6.849	0.100
12.700	-15.748	0.100
12.800	-10.170	0.100
12.900	1.700	0.100
13.000	7.887	0.100
13.100	-15.514	0.100
13.200	16.353	0.100
13.300	11.261	0.100
13.400	20.072	0.100
13.500	-11.834	0.101
13.600	-5.106	0.100
13.700	9.619	0.100
13.800	7.314	0.100
13.900	-3.114	0.100
14.000	-4.995	0.100
14.100	-37.585	0.100
14.200	-13.225	0.100
14.300	31.238	0.100
14.400	-24.511	0.100
14.500	0.081	0.101
14.600	-18.950	0.100
14.700	-5.316	0.100
14.800	0.394	0.100
14.900	-0.940	0.100
15.000	-0.418	0.100
15.100	-20.480	0.100
15.200	-7.379	0.100
15.300	-31.163	0.100
15.400	-6.320	0.100
15.500	-15.051	0.100
15.600	-7.942	0.100
15.700	13.503	0.100
15.800	-28.281	0.100
15.900	-4.052	0.100
16.000	1.881	0.100
16.100	-16.126	0.100
16.200	-9.408	0.100
16.300	0.555	0.100
16.400	7.870	0.100
16.500	-22.119	0.100
16.600	-6.613	0.100
16.700	16.864	0.100
16.800	-18.264	0.101
16.900	-32.360	0.100
17.000	-22.623	0.100
17.100	25.577	0.100
17.200	-48.557	0.100
17.300	-21.228	0.100
17.400	-4.050	0.100
17.500	18.629	0.101
17.600	-5.923	0.100
17.700	4.169	0.100
17.800	-32.447	0.100
17.900	6.033	0.100
18.000	-7.169	0.100
18.100	-35.878	0.100
18.200	19.944	0.100
18.300	-12.908	0.101
18.400	-24.042	0.100
18.500	-6.236	0.100
18.600	-2.652	0.100
18.700	39.461	0.100
18.800	9.204	0.100
18.900	2.451	0.100
19.000	4.476	0.100
19.100	19.821	0.100
19.200	-29.986	0.100
19.300	18.333	0.100
19.400	16.881	0.100
19.500	-17.882	0.100
19.600	17.328	0.100
19.700	-29.690	0.100
19.800	-1.490	0.100
19.900	-16.090	0.100
20.000	-12.778	0.100
20.100	-4.712	0.101
20.200	-9.797	0.100
20.300	-0.817	0.100
20.400	9.104	0.100
20.500	24.175	0.100
20.600	-7.574	0.100
20.700	-14.550	0.100
20.800	-20.618	0.100
20.900	-6.094	0.100
21.000	13.000	0.100
21.100	-26.603	0.100
21.200	-31.345	0.100
21.300	-14.377	0.101
21.400	-32.967	0.101
21.500	17.402	0.100
21.600	1.439	0.100
21.700	-5.889	0.100
21.800	1.058	0.100
21.900	-17.083	0.100
22.000	12.405	0.100
22.100	28.980	0.100
22.200	-10.790	0.100
22.300	-17.211	0.100
22.400	-17.004	0.101
22.500	31.034	0.100
22.600	-2.508	0.100
22.700	12.162	0.100
22.800	21.480	0.101
22.900	-22.941	0.100
23.000	1.054	0.100
23.100	-22.651	0.100
23.200	-17.242	0.100
23.300	-10.948	0.100
23.400	-14.046	0.100
23.500	-39.585	0.100
23.600	-2.014	0.100
23.700	-20.429	0.100
23.800	26.359	0.100
23.900	-34.803	0.100
24.000	7.190	0.100
24.100	-35.283	0.100
24.200	-7.042	0.100
24.300	-38.221	0.101
24.400	-2.394	0.100
24.500	9.684	0.100
24.600	-16.777	0.100
24.700	-35.837	0.100
24.800	24.475	0.100
24.900	-4.162	0.100
25.000	-30.721	0.100
25.100	50.282	0.100
25.200	-19.298	0.100
25.300	36.107	0.100
25.400	-16.249	0.100
25.500	-17.618	0.100
25.600	-25.373	0.100
25.700	5.396	0.100
25.800	2.245	0.100
25.900	26.472	0.100
26.000	2.688	0.100
26.100	19.859	0.100
26.200	-5.356	0.100
26.300	15.552	0.100
26.400	-11.163	0.100
26.500	11.398	0.100
26.600	22.334	0.100
26.700	-2.145	0.100
26.800	10.579	0.100
26.900	7.515	0.100
27.000	3.554	0.100
27.100	-0.256	0.100
27.200	18.701	0.100
27.300	24.882	0.100
27.400	14.729	0.100
27.500	-8.569	0.100
27.600	1.108	0.100
27.700	-23.428	0.101
27.800	-15.405	0.100
27.900	12.339	0.100
28.000	-10.669	0.100
28.100	-1.973	0.100
28.200	-20.810	0.100
28.300	8.845	0.100
28.400	16.807	0.100
28.500	-11.404	0.100
28.600	5.625	0.100
28.700	-9.337	0.100
28.800	12.888	0.100
28.900	-19.248	0.100
29.000	-11.382	0.100
29.100	-3.087	0.100
29.200	2.589	0.100
29.300	-11.824	0.100
29.400	1.333	0.100
29.500	-14.770	0.100
29.600	36.261	0.100
29.700	5.548	0.100
29.800	-20.152	0.100
29.900	11.683	0.100
30.000	35.702	0.100
30.100	0.485	0.100
30.200	-42.680	0.100
30.300	-20.455	0.100
30.400	-7.469	0.100
30.500	2.475	0.100
30.600	-2.633	0.100
30.700	11.756	0.100
30.800	33.789	0.100
30.900	4.154	0.100
31.000	-16.025	0.101
31.100	4.699	0.100
31.200	5.622	0.100
31.300	-21.117	0.100
31.400	22.883	0.100
31.500	-2.642	0.100
31.600	10.869	0.100
31.700	-10.793	0.100
31.800	2.702	0.100
31.900	-15.494	0.100
32.000	-19.756	0.100
32.100	2.880	0.100
32.200	33.056	0.100
32.300	-3.853	0.100
32.400	9.386	0.100
32.500	-5.001	0.100
32.600	-31.146	0.100
32.700	-28.519	0.100
32.800	-11.342	0.100
32.900	10.026	0.100
33.000	-26.711	0.100
33.100	10.780	0.100
33.200	-43.096	0.100
33.300	13.933	0.100
33.400	-8.414	0.100
33.500	-7.741	0.100
33.600	7.201	0.100
33.700	-11.312	0.100
33.800	9.136	0.100
33.900	8.335	0.100
34.000	2.772	0.100
34.100	5.889	0.100
34.200	-3.764	0.100
34.300	17.685	0.100
34.400	8.616	0.100
34.500	-8.084	0.100
34.600	27.168	0.100
34.700	12.528	0.101
34.800	3.055	0.100
34.900	14.941	0.100
35.000	12.857	0.101
35.100	-0.882	0.100
35.200	-15.845	0.100
35.300	8.167	0.101
35.400	12.326	0.100
35.500	-7.119	0.100
35.600	-6.936	0.100
35.700	-8.300	0.100
35.800	-0.560	0.100
35.900	-1.293	0.100
36.000	13.701	0.100
36.100	15.549	0.100
36.200	-13.109	0.100
36.300	41.854	0.100
36.400	15.565	0.100
36.500	-30.073	0.100
36.600	24.706	0.100
36.700	-1.645	0.100
36.800	-8.680	0.101
36.900	-2.026	0.100
37.000	-29.214	0.100
37.100	17.257	0.100
37.200	-22.177	0.100
37.300	-2.106	0.100
37.400	-37.679	0.100
37.500	-3.237	0.101
37.600	40.456	0.100
37.700	-17.499	0.100
37.800	-14.743	0.100
37.900	24.755	0.100
38.000	19.033	0.100
38.100	45.521	0.100
38.200	9.871	0.100
38.300	5.313	0.100
38.400	-0.765	0.100
38.500	-2.689	0.100
38.600	30.455	0.100
38.700	10.160	0.100
38.800	9.883	0.100
38.900	-34.909	0.100
39.000	15.293	0.100
39.100	34.465	0.100
39.200	-14.840	0.100
39.300	0.448	0.100
39.400	10.861	0.100
39.500	1.427	0.100
39.600	14.885	0.100
39.700	57.900	0.100
39.800	25.543	0.100
39.900	5.879	0.101
40.000	23.799	0.100
40.100	-27.625	0.100
40.200	13.961	0.100
40.300	10.044	0.101
40.400	13.939	0.100
40.500	16.945	0.100
40.600	14.430	0.100
40.700	1.260	0.100
40.800	9.968	0.100
40.900	34.946	0.100
41.000	23.270	0.100
41.100	1.660	0.100
41.200	18.432	0.100
41.300	-16.375	0.100
41.400	11.868	0.100
41.500	15.033	0.100
41.600	10.287	0.100
41.700	17.459	0.100
41.800	9.438	0.100
41.900	18.367	0.100
42.000	9.696	0.100
42.100	26.678	0.100
42.200	-9.597	0.100
42.300	-9.075	0.100
42.400	-17.459	0.101
42.500	18.040	0.100
42.600	-7.178	0.100
42.700	4.665	0.100
42.800	1.846	0.101
42.900	3.573	0.100
43.000	6.946	0.100
43.100	11.640	0.100
43.200	20.585	0.100
43.300	26.671	0.100
43.400	-2.346	0.100
43.500	5.367	0.100
43.600	-21.519	0.100
43.700	1.153	0.100
43.800	-11.539	0.100
43.900	11.815	0.100
44.000	-1.091	0.100
44.100	-0.743	0.100
44.200	-13.021	0.100
44.300	-14.530	0.100
44.400	4.255	0.100
44.500	16.882	0.100
44.600	30.182	0.100
44.700	12.588	0.100
44.800	18.704	0.100
44.900	33.319	0.100
45.000	-5.317	0.100
45.100	-8.291	0.100
45.200	26.841	0.100
45.300	-10.547	0.100
45.400	29.572	0.100
45.500	5.718	0.100
45.600	18.092	0.100
45.700	-0.060	0.100
45.800	3.786	0.100
45.900	17.129	0.100
46.000	35.806	0.100
46.100	3.241	0.100
46.200	-0.053	0.100
46.300	8.610	0.100
46.400	7.496	0.100
46.500	-16.556	0.100
46.600	13.492	0.100
46.700	28.852	0.100
46.800	-6.875	0.100
46.900	-39.810	0.100
47.000	12.955	0.100
47.100	31.697	0.100
47.200	0.483	0.100
47.300	33.352	0.100
47.400	1.291	0.100
47.500	27.289	0.100
47.600	-13.690	0.100
47.700	-6.509	0.100
47.800	22.416	0.100
47.900	46.046	0.100
48.000	-0.783	0.100
48.100	29.344	0.100
48.200	10.016	0.100
48.300	21.513	0.100
48.400	19.696	0.100
48.500	-14.838	0.100
48.600	9.188	0.100
48.700	6.614	0.100
48.800	32.606	0.100
48.900	2.822	0.100
49.000	26.007	0.100
49.100	-5.468	0.100
49.200	5.684	0.100
49.300	10.711	0.100
49.400	-0.814	0.100
49.500	-7.863	0.100
49.600	-0.168	0.100
49.700	-1.558	0.100
49.800	12.693	0.100
49.900	24.264	0.100
50.000	14.828	0.100
50.100	29.194	0.100
50.200	32.602	0.101
50.300	14.906	0.100
50.400	31.349	0.100
50.500	3.329	0.100
50.600	1.376	0.100
50.700	-9.563	0.100
50.800	21.556	0.100
50.900	17.196	0.100
51.000	-1.085	0.100
51.100	-0.513	0.100
51.200	6.153	0.101
51.300	1.527	0.100
51.400	-6.482	0.100
51.500	30.745	0.100
51.600	23.499	0.100
51.700	15.546	0.100
51.800	26.549	0.101
51.900	1.188	0.100
52.000	5.384	0.100
52.100	19.903	0.101
52.200	33.549	0.100
52.300	37.893	0.101
52.400	3.622	0.100
52.500	-17.274	0.100
52.600	25.749	0.100
52.700	-2.896	0.100
52.800	39.805	0.100
52.900	-25.606	0.101
53.000	8.764	0.101
53.100	11.472	0.100
53.200	18.754	0.100
53.300	28.557	0.100
53.400	22.374	0.100
53.500	-3.988	0.100
53.600	23.967	0.100
53.700	14.484	0.100
53.800	4.191	0.100
53.900	15.894	0.100
54.000	-12.317	0.100
54.100	-9.127	0.100
54.200	14.066	0.100
54.300	47.563	0.100
54.400	30.196	0.100
54.500	30.688	0.100
54.600	36.314	0.100
54.700	9.278	0.100
54.800	-16.433	0.100
54.900	13.356	0.100
55.000	40.129	0.100
55.100	0.555	0.100
55.200	12.007	0.100
55.300	29.060	0.100
55.400	15.686	0.100
55.500	31.102	0.100
55.600	-21.605	0.100
55.700	6.817	0.100
55.800	20.773	0.100
55.900	13.475	0.101
56.000	21.782	0.100
56.100	-15.773	0.100
56.200	26.455	0.100
56.300	17.033	0.101
56.400	20.503	0.100
56.500	29.038	0.100
56.600	1.104	0.100
56.700	2.626	0.100
56.800	16.312	0.100
56.900	7.491	0.100
57.000	8.656	0.100
57.100	17.924	0.100
57.200	14.886	0.100
57.300	31.802	0.100
57.400	6.734	0.100
57.500	17.254	0.100
57.600	14.531	0.101
57.700	16.993	0.100
57.800	12.621	0.100
57.900	18.651	0.100
58.000	3.042	0.101
58.100	28.832	0.100
58.200	32.898	0.101
58.300	14.659	0.101
58.400	20.751	0.100
58.500	27.426	0.100
58.600	-2.269	0.100
58.700	47.000	0.100
58.800	21.646	0.100
58.900	1.651	0.100
59.000	18.546	0.100
59.100	14.014	0.100
59.200	7.627	0.100
59.300	28.321	0.100
59.400	24.504	0.100
59.500	39.915	0.100
59.600	15.644	0.100
59.700	15.690	0.100
59.800	14.302	0.100
59.900	16.975	0.100
60.000	51.117	0.100
60.100	7.371	0.100
60.200	32.591	0.100
60.300	-6.350	0.100
60.400	19.305	0.100
60.500	38.561	0.100
60.600	3.365	0.100
60.700	27.230	0.100
60.800	9.830	0.100
60.900	18.256	0.100
61.000	33.947	0.100
61.100	-1.786	0.100
61.200	18.777	0.100
61.300	13.176	0.100
61.400	49.370	0.100
61.500	1.697	0.100
61.600	-2.279	0.100
61.700	8.613	0.100
61.800	9.074	0.101
61.900	6.654	0.100
62.000	43.598	0.100
62.100	23.034	0.100
62.200	-0.329	0.100
62.300	35.788	0.100
62.400	12.855	0.100
62.500	4.199	0.100
62.600	23.837	0.101
62.700	37.411	0.101
62.800	20.467	0.100
62.900	2.585	0.100
63.000	70.364	0.100
63.100	-4.100	0.100
63.200	24.023	0.100
63.300	6.047	0.100
63.400	9.476	0.100
63.500	-5.006	0.100
63.600	20.694	0.100
63.700	6.849	0.101
63.800	32.864	0.100
63.900	-25.571	0.100
64.000	19.333	0.100
64.100	19.966	0.100
64.200	33.635	0.100
64.300	47.099	0.101
64.400	17.858	0.100
64.500	0.007	0.101
64.600	9.088	0.100
64.700	20.310	0.100
64.800	33.922	0.100
64.900	30.007	0.100
65.000	23.458	0.101
65.100	44.252	0.100
65.200	7.932	0.100
65.300	6.828	0.100
65.400	32.516	0.100
65.500	6.466	0.100
65.600	42.498	0.100
65.700	28.644	0.100
65.800	-4.264	0.101
65.900	35.355	0.101
66.000	17.041	0.101
66.100	23.979	0.101
66.200	0.236	0.100
66.300	23.687	0.101
66.400	-0.029	0.101
66.500	1.789	0.101
66.600	26.655	0.101
66.700	-1.971	0.100
66.800	46.618	0.101
66.900	23.274	0.100
67.000	21.340	0.101
67.100	-11.359	0.101
67.200	2.563	0.101
67.300	11.161	0.101
67.400	5.480	0.101
67.500	21.266	0.101
67.600	13.516	0.101
67.700	-15.345	0.101
67.800	40.183	0.101
67.900	21.275	0.101
68.000	21.061	0.101
68.100	-12.811	0.100
68.200	46.707	0.100
68.300	34.522	0.100
68.400	6.521	0.100
68.500	-2.905	0.101
68.600	-2.489	0.101
68.700	36.501	0.101
68.800	3.654	0.101
68.900	36.179	0.100
69.000	20.131	0.101
69.100	16.067	0.101
69.200	20.631	0.101
69.300	36.479	0.101
69.400	14.365	0.101
69.500	9.447	0.101
69.600	9.493	0.101
69.700	19.574	0.101
69.800	19.875	0.101
69.900	33.300	0.101
70.000	12.642	0.100
70.100	30.693	0.101
70.200	34.041	0.101
70.300	19.345	0.101
70.400	36.905	0.101
70.500	43.474	0.101
70.600	0.197	0.101
70.700	45.501	0.101
70.800	0.259	0.100
70.900	25.859	0.101
71.000	7.226	0.100
71.100	39.498	0.101
71.200	27.175	0.101
71.300	14.578	0.100
71.400	45.369	0.101
71.500	32.885	0.101
71.600	26.021	0.100
71.700	26.928	0.101
71.800	-21.936	0.100
71.900	15.341	0.100
72.000	13.027	0.101
72.100	20.547	0.101
72.200	-1.049	0.101
72.300	16.538	0.101
72.400	40.181	0.100
72.500	5.250	0.100
72.600	33.820	0.101
72.700	38.750	0.101
72.800	10.233	0.101
72.900	33.194	0.100
73.000	40.309	0.101
73.100	14.552	0.100
73.200	11.565	0.101
73.300	12.644	0.101
73.400	21.131	0.101
73.500	12.275	0.100
73.600	29.053	0.101
73.700	23.774	0.101
73.800	15.865	0.101
73.900	4.060	0.101
74.000	41.552	0.101
74.100	30.639	0.101
74.200	-0.686	0.101
74.300	28.895	0.100
74.400	-0.112	0.100
74.500	50.573	0.101
74.600	23.032	0.101
74.700	32.545	0.101
74.800	18.807	0.101
74.900	33.707	0.101
75.000	15.983	0.101
75.100	5.387	0.100
75.200	15.018	0.101
75.300	21.307	0.101
75.400	25.107	0.101
75.500	38.934	0.101
75.600	29.363	0.101
75.700	23.420	0.101
75.800	19.202	0.101
75.900	14.643	0.100
76.000	23.287	0.100
76.100	26.954	0.100
76.200	16.147	0.100
76.300	46.606	0.101
76.400	13.288	0.101
76.500	20.837	0.100
76.600	26.160	0.101
76.700	-0.934	0.101
76.800	20.652	0.100
76.900	12.401	0.101
77.000	28.870	0.100
77.100	50.188	0.101
77.200	-0.040	0.100
77.300	27.880	0.101
77.400	25.599	0.100
77.500	40.867	0.101
77.600	23.693	0.101
77.700	34.547	0.101
77.800	27.403	0.101
77.900	10.237	0.101
78.000	42.947	0.101
78.100	14.378	0.100
78.200	28.923	0.100
78.300	31.837	0.101
78.400	5.565	0.100
78.500	36.626	0.101
78.600	-2.117	0.101
78.700	10.590	0.101
78.800	58.402	0.101
78.900	21.531	0.100
79.000	40.989	0.100
79.100	20.294	0.101
79.200	31.346	0.101
79.300	41.446	0.100
79.400	35.540	0.101
79.500	-15.942	0.100
79.600	22.227	0.101
79.700	16.517	0.101
79.800	36.216	0.101
79.900	28.411	0.101
80.000	50.694	0.100
80.100	16.216	0.101
80.200	16.015	0.101
80.300	29.508	0.101
80.400	33.104	0.101
80.500	54.155	0.100
80.600	24.135	0.100
80.700	18.656	0.100
80.800	40.154	0.100
80.900	57.608	0.100
81.000	38.007	0.100
81.100	6.901	0.101
81.200	58.336	0.101
81.300	34.505	0.101
81.400	38.943	0.100
81.500	53.842	0.101
81.600	18.709	0.101
81.700	29.835	0.101
81.800	6.973	0.100
81.900	13.022	0.101
82.000	61.182	0.101
82.100	18.494	0.100
82.200	19.606	0.100
82.300	26.328	0.100
82.400	29.713	0.100
82.500	10.874	0.101
82.600	17.754	0.100
82.700	49.871	0.101
82.800	20.487	0.101
82.900	38.613	0.101
83.000	19.556	0.101
83.100	29.823	0.101
83.200	23.247	0.100
83.300	45.985	0.100
83.400	66.773	0.101
83.500	49.040	0.101
83.600	23.812	0.101
83.700	56.020	0.101
83.800	40.351	0.100
83.900	34.719	0.100
84.000	3.930	0.101
84.100	34.244	0.101
84.200	41.937	0.101
84.300	34.666	0.100
84.400	44.519	0.101
84.500	20.298	0.101
84.600	28.945	0.101
84.700	10.157	0.101
84.800	0.848	0.101
84.900	32.386	0.100
85.000	50.643	0.101
85.100	31.336	0.101
85.200	30.141	0.101
85.300	34.125	0.101
85.400	7.908	0.101
85.500	6.493	0.100
85.600	49.879	0.100
85.700	44.142	0.101
85.800	55.431	0.101
85.900	-2.573	0.101
86.000	21.017	0.100
86.100	29.465	0.101
86.200	43.315	0.101
86.300	29.221	0.101
86.400	40.444	0.101
86.500	29.123	0.101
86.600	8.269	0.101
86.700	9.560	0.100
86.800	11.444	0.101
86.900	50.834	0.101
87.000	33.109	0.101
87.100	35.748	0.101
87.200	34.676	0.101
87.300	32.481	0.101
87.400	33.717	0.101
87.500	-15.180	0.101
87.600	41.262	0.101
87.700	35.240	0.101
87.800	20.746	0.101
87.900	25.441	0.101
88.000	25.652	0.101
88.100	37.864	0.101
88.200	22.851	0.101
88.300	53.894	0.101
88.400	21.350	0.101
88.500	79.246	0.101
88.600	49.213	0.101
88.700	29.901	0.101
88.800	35.080	0.101
88.900	62.836	0.101
89.000	33.530	0.100
89.100	34.811	0.101
89.200	32.162	0.101
89.300	43.552	0.101
89.400	43.984	0.101
89.500	32.349	0.101
89.600	58.201	0.101
89.700	44.652	0.101
89.800	35.425	0.101
89.900	45.500	0.101
90.000	27.825	0.101
90.100	26.833	0.101
90.200	29.995	0.101
90.300	26.571	0.101
90.400	32.461	0.101
90.500	34.935	0.101
90.600	17.757	0.101
90.700	38.184	0.101
90.800	44.091	0.101
90.900	33.228	0.101
91.000	61.094	0.101
91.100	32.636	0.101
91.200	19.249	0.101
91.300	26.278	0.101
91.400	28.421	0.101
91.500	47.725	0.101
91.600	14.009	0.101
91.700	44.990	0.101
91.800	34.623	0.101
91.900	21.528	0.101
92.000	30.543	0.101
92.100	32.913	0.101
92.200	13.683	0.101
92.300	40.336	0.101
92.400	9.771	0.101
92.500	21.480	0.101
92.600	23.416	0.101
92.700	41.734	0.101
92.800	39.561	0.101
92.900	30.350	0.101
93.000	26.651	0.101
93.100	55.784	0.101
93.200	19.746	0.101
93.300	23.029	0.101
93.400	16.710	0.101
93.500	5.742	0.101
93.600	9.441	0.101
93.700	-2.693	0.101
93.800	15.649	0.101
93.900	70.113	0.101
94.000	7.980	0.101
94.100	30.668	0.101
94.200	43.396	0.101
94.300	35.829	0.101
94.400	49.670	0.101
94.500	43.010	0.101
94.600	9.850	0.101
94.700	-2.999	0.101
94.800	38.799	0.101
94.900	25.956	0.101
95.000	28.672	0.101
95.100	-12.176	0.101
95.200	14.147	0.101
95.300	56.034	0.101
95.400	6.554	0.101
95.500	18.757	0.101
95.600	14.611	0.101
