time /s	I /nA	E /V
0.100	-2.267	0.101
0.200	-9.837	0.101
0.300	-7.830	0.101
0.400	-9.520	0.101
0.500	-0.647	0.101
0.600	-4.531	0.101
0.700	-4.012	0.101
0.800	-17.737	0.101
0.900	-7.185	0.101
1.000	-21.097	0.101
1.100	-11.008	0.101
1.200	-22.453	0.101
1.300	-12.286	0.101
1.400	-8.589	0.101
1.500	-13.700	0.101
1.600	-14.879	0.101
1.700	-14.400	0.101
1.800	-8.531	0.101
1.900	1.061	0.101
2.000	-6.254	0.101
2.100	-4.298	0.101
2.200	-18.405	0.101
2.300	-9.697	0.101
2.400	-21.630	0.101
2.500	1.340	0.101
2.600	-8.191	0.101
2.700	-19.441	0.101
2.800	-31.257	0.101
2.900	-22.820	0.101
3.000	-5.550	0.101
3.100	-16.839	0.101
3.200	-11.116	0.101
3.300	-9.146	0.101
3.400	-11.484	0.101
3.500	-2.608	0.101
3.600	-12.786	0.101
3.700	-22.612	0.101
3.800	-8.245	0.101
3.900	-10.480	0.101
4.000	-20.150	0.101
4.100	-5.583	0.101
4.200	-14.531	0.101
4.300	-19.939	0.101
4.400	-12.024	0.101
4.500	-17.981	0.101
4.600	-9.289	0.101
4.700	-10.751	0.101
4.800	-26.853	0.101
4.900	-6.204	0.101
5.000	-2.756	0.101
5.100	2.552	0.101
5.200	-12.729	0.101
5.300	-7.979	0.101
5.400	-17.654	0.101
5.500	-18.554	0.101
5.600	-25.272	0.101
5.700	-16.047	0.101
5.800	-12.392	0.101
5.900	-17.054	0.101
6.000	-11.849	0.101
6.100	-6.260	0.101
6.200	-12.264	0.101
6.300	-7.723	0.101
6.400	-10.276	0.101
6.500	-24.565	0.101
6.600	-23.513	0.101
6.700	-11.410	0.101
6.800	-11.423	0.101
6.900	-14.902	0.101
7.000	-14.017	0.101
7.100	-7.985	0.101
7.200	-11.699	0.101
7.300	-18.498	0.101
7.400	-12.209	0.101
7.500	-7.674	0.101
7.600	-14.096	0.101
7.700	-29.623	0.101
7.800	-20.007	0.101
7.900	-22.374	0.101
8.000	-10.838	0.101
8.100	-1.202	0.101
8.200	-10.681	0.101
8.300	-17.837	0.101
8.400	-7.046	0.101
8.500	-3.284	0.101
8.600	-14.001	0.101
8.700	-5.184	0.101
8.800	-15.220	0.101
8.900	-16.308	0.101
9.000	-13.298	0.101
9.100	-15.855	0.101
9.200	3.709	0.101
9.300	-18.618	0.101
9.400	-21.228	0.101
9.500	-21.231	0.101
9.600	-8.521	0.101
9.700	-6.124	0.101
9.800	-20.516	0.101
9.900	-4.547	0.101
10.000	-3.865	0.101
10.100	-21.994	0.101
10.200	-13.520	0.101
10.300	-16.308	0.101
10.400	-6.234	0.101
10.500	-17.284	0.101
10.600	-2.313	0.101
10.700	-14.600	0.101
10.800	-4.096	0.101
10.900	-18.891	0.101
11.000	-12.911	0.101
11.100	-18.974	0.101
11.200	-9.065	0.101
11.300	-5.816	0.101
11.400	-12.714	0.101
11.500	-24.256	0.101
11.600	-18.151	0.101
11.700	-10.937	0.101
11.800	-19.805	0.101
11.900	-16.295	0.101
12.000	-13.658	0.101
12.100	-15.226	0.101
12.200	-6.124	0.101
12.300	-5.713	0.101
12.400	-13.631	0.101
12.500	-13.112	0.101
12.600	-11.558	0.101
12.700	-5.961	0.101
12.800	-4.412	0.101
12.900	-7.394	0.101
13.000	-10.788	0.101
13.100	-14.642	0.101
13.200	-21.089	0.101
13.300	-6.968	0.101
13.400	-14.891	0.101
13.500	-15.731	0.101
13.600	-10.536	0.101
13.700	-6.810	0.101
13.800	-15.667	0.101
13.900	-13.531	0.101
14.000	-11.549	0.101
14.100	-28.199	0.101
14.200	-14.817	0.101
14.300	-11.272	0.101
14.400	-16.336	0.101
14.500	-11.602	0.101
14.600	-19.620	0.101
14.700	-4.351	0.101
14.800	-15.739	0.101
14.900	-8.643	0.101
15.000	-11.704	0.101
15.100	-7.067	0.101
15.200	-6.946	0.101
15.300	-6.234	0.101
15.400	-5.209	0.101
15.500	-12.268	0.101
15.600	-7.090	0.101
15.700	-26.561	0.101
15.800	-15.688	0.101
15.900	-9.270	0.101
16.000	-12.144	0.101
16.100	-24.169	0.101
16.200	-3.556	0.101
16.300	-8.710	0.101
16.400	-11.874	0.101
16.500	-25.781	0.101
16.600	-7.515	0.101
16.700	-7.017	0.101
16.800	-14.402	0.101
16.900	-22.534	0.101
17.000	-7.645	0.101
17.100	-0.795	0.101
17.200	-5.703	0.101
17.300	-11.439	0.101
17.400	-16.009	0.101
17.500	-11.025	0.101
17.600	-18.941	0.101
17.700	-22.302	0.101
17.800	2.839	0.101
17.900	-11.306	0.101
18.000	-11.424	0.101
18.100	-15.148	0.101
18.200	-16.016	0.101
18.300	-0.776	0.101
18.400	-16.941	0.101
18.500	-8.076	0.101
18.600	-3.673	0.101
18.700	-8.743	0.101
18.800	-11.452	0.101
18.900	-19.050	0.101
19.000	-2.069	0.101
19.100	-23.912	0.101
19.200	-8.726	0.101
19.300	-2.631	0.101
19.400	-14.572	0.101
19.500	-35.508	0.101
19.600	1.765	0.101
19.700	-9.397	0.101
19.800	-2.579	0.101
19.900	-23.590	0.101
20.000	-4.387	0.101
20.100	-5.350	0.101
20.200	-18.814	0.101
20.300	-17.723	0.101
20.400	-5.539	0.101
20.500	-12.439	0.101
20.600	-8.856	0.101
20.700	-6.850	0.101
20.800	-8.402	0.101
20.900	-14.037	0.101
21.000	-17.091	0.101
21.100	-12.822	0.101
21.200	-14.913	0.101
21.300	-6.450	0.101
21.400	-5.127	0.101
21.500	-13.064	0.101
21.600	-21.106	0.101
21.700	-8.667	0.101
21.800	-22.225	0.101
21.900	-18.677	0.101
22.000	-10.818	0.101
22.100	-4.826	0.101
22.200	-12.672	0.101
22.300	-2.469	0.101
22.400	-19.948	0.101
22.500	-10.979	0.101
22.600	-22.276	0.101
22.700	-16.364	0.101
22.800	-12.241	0.101
22.900	2.033	0.101
23.000	-12.794	0.101
23.100	-22.076	0.101
23.200	-13.425	0.101
23.300	1.268	0.101
23.400	-12.144	0.101
23.500	-22.286	0.101
23.600	1.064	0.101
23.700	-6.991	0.101
23.800	-10.938	0.101
23.900	-8.765	0.101
24.000	-15.532	0.101
24.100	-2.387	0.101
24.200	-17.469	0.101
24.300	-11.385	0.101
24.400	-22.691	0.101
24.500	-12.642	0.101
24.600	-20.201	0.101
24.700	-25.243	0.101
24.800	-12.797	0.101
24.900	-8.598	0.101
25.000	-14.308	0.101
25.100	-7.107	0.101
25.200	-10.429	0.101
25.300	-3.860	0.101
25.400	-20.752	0.101
25.500	-3.999	0.101
25.600	-8.071	0.101
25.700	-13.623	0.101
25.800	-16.306	0.101
25.900	-0.037	0.101
26.000	-18.168	0.101
26.100	-14.145	0.101
26.200	-14.917	0.101
26.300	-13.085	0.101
26.400	-15.620	0.101
26.500	-6.221	0.101
26.600	-12.263	0.101
26.700	-8.352	0.101
26.800	-11.299	0.101
26.900	-1.167	0.101
27.000	-18.011	0.101
27.100	-13.502	0.101
27.200	-7.764	0.101
27.300	-8.319	0.101
27.400	-8.379	0.101
27.500	-13.921	0.101
27.600	-0.386	0.101
27.700	-15.653	0.101
27.800	-12.980	0.101
27.900	-13.136	0.101
28.000	-2.703	0.101
28.100	-16.949	0.101
28.200	-19.094	0.101
28.300	-10.133	0.101
28.400	-18.458	0.101
28.500	-7.629	0.101
28.600	-13.808	0.101
28.700	2.749	0.101
28.800	-19.307	0.101
28.900	-12.061	0.101
29.000	-9.879	0.101
29.100	-2.425	0.101
29.200	-24.179	0.101
29.300	-4.443	0.101
29.400	-7.914	0.101
29.500	-29.127	0.101
29.600	-13.620	0.101
29.700	1.808	0.101
29.800	-5.112	0.101
29.900	-9.388	0.101
30.000	-6.552	0.101
30.100	-14.054	0.101
30.200	-9.207	0.101
30.300	-10.766	0.101
30.400	-9.848	0.101
30.500	-5.982	0.101
30.600	1.465	0.101
30.700	-12.420	0.101
30.800	-2.440	0.101
30.900	13.009	0.101
31.000	8.246	0.101
31.100	8.925	0.101
31.200	16.876	0.101
31.300	10.952	0.101
31.400	17.036	0.101
31.500	16.575	0.101
31.600	24.025	0.101
31.700	13.848	0.101
31.800	17.010	0.101
31.900	22.567	0.101
32.000	20.330	0.101
32.100	21.206	0.101
32.200	12.965	0.101
32.300	20.224	0.101
32.400	16.527	0.101
32.500	8.427	0.101
32.600	13.082	0.101
32.700	17.728	0.101
32.800	17.259	0.101
32.900	32.825	0.101
33.000	20.294	0.101
33.100	10.240	0.101
33.200	23.001	0.101
33.300	21.741	0.101
33.400	13.333	0.101
33.500	22.545	0.101
33.600	11.545	0.101
33.700	10.881	0.101
33.800	15.138	0.101
33.900	10.404	0.101
34.000	14.499	0.101
34.100	11.903	0.101
34.200	18.026	0.101
34.300	12.158	0.101
34.400	6.047	0.101
34.500	-2.981	0.101
34.600	5.679	0.101
34.700	13.612	0.101
34.800	4.832	0.101
34.900	8.479	0.101
35.000	10.017	0.101
35.100	14.638	0.101
35.200	13.623	0.101
35.300	20.068	0.101
35.400	17.378	0.101
35.500	3.253	0.101
35.600	-1.420	0.101
35.700	5.711	0.101
35.800	-1.820	0.101
35.900	15.201	0.101
36.000	12.479	0.101
36.100	13.210	0.101
36.200	6.029	0.101
36.300	-5.484	0.101
36.400	8.636	0.101
36.500	17.611	0.101
36.600	13.274	0.101
36.700	-4.278	0.101
36.800	7.410	0.101
36.900	24.183	0.101
37.000	1.659	0.101
37.100	26.559	0.101
37.200	4.965	0.101
37.300	5.620	0.101
37.400	15.111	0.101
37.500	15.754	0.101
37.600	8.117	0.101
37.700	5.541	0.101
37.800	9.642	0.101
37.900	7.043	0.101
38.000	-2.046	0.101
38.100	23.684	0.101
38.200	22.950	0.101
38.300	3.476	0.101
38.400	-1.326	0.101
38.500	15.821	0.101
38.600	8.420	0.101
38.700	16.477	0.101
38.800	1.156	0.101
38.900	16.566	0.101
39.000	5.826	0.101
39.100	19.637	0.101
39.200	10.996	0.101
39.300	5.088	0.101
39.400	10.320	0.101
39.500	19.738	0.101
39.600	21.394	0.101
39.700	29.748	0.101
39.800	-5.957	0.101
39.900	10.683	0.101
40.000	31.749	0.101
40.100	31.901	0.101
40.200	8.360	0.101
40.300	24.098	0.101
40.400	26.637	0.101
40.500	5.797	0.101
40.600	13.871	0.101
40.700	8.481	0.101
40.800	29.527	0.101
40.900	10.675	0.101
41.000	16.579	0.101
41.100	19.196	0.101
41.200	16.827	0.101
41.300	14.589	0.101
41.400	22.320	0.101
41.500	40.199	0.101
41.600	10.726	0.101
41.700	17.298	0.101
41.800	15.717	0.101
41.900	27.652	0.101
42.000	26.569	0.101
42.100	18.922	0.101
42.200	17.879	0.101
42.300	23.873	0.101
42.400	28.864	0.101
42.500	24.036	0.101
42.600	33.716	0.101
42.700	28.847	0.101
42.800	32.879	0.101
42.900	17.852	0.101
43.000	26.407	0.101
43.100	29.034	0.101
43.200	31.740	0.101
43.300	33.552	0.101
43.400	25.633	0.101
43.500	37.206	0.101
43.600	35.076	0.101
43.700	21.804	0.101
43.800	37.348	0.101
43.900	24.804	0.101
44.000	35.052	0.101
44.100	35.909	0.101
44.200	34.858	0.101
44.300	29.506	0.101
44.400	30.863	0.101
44.500	42.715	0.101
44.600	33.514	0.101
44.700	22.689	0.101
44.800	42.968	0.101
44.900	34.206	0.101
45.000	50.714	0.101
45.100	46.372	0.101
45.200	55.199	0.101
45.300	30.301	0.101
45.400	39.527	0.101
45.500	35.731	0.101
45.600	42.659	0.101
45.700	36.678	0.101
45.800	40.593	0.101
45.900	34.066	0.101
46.000	43.254	0.101
46.100	33.670	0.101
46.200	45.034	0.101
46.300	30.382	0.101
46.400	48.034	0.101
46.500	48.779	0.101
46.600	37.687	0.101
46.700	42.129	0.101
46.800	39.881	0.101
46.900	47.380	0.101
47.000	46.059	0.101
47.100	46.621	0.101
47.200	62.485	0.101
47.300	50.268	0.101
47.400	51.472	0.101
47.500	51.723	0.101
47.600	45.643	0.101
47.700	53.119	0.101
47.800	58.531	0.101
47.900	45.796	0.101
48.000	55.996	0.101
48.100	44.460	0.101
48.200	36.651	0.101
48.300	52.253	0.101
48.400	48.915	0.101
48.500	44.552	0.101
48.600	56.492	0.101
48.700	51.198	0.101
48.800	45.706	0.101
48.900	60.318	0.101
49.000	54.664	0.101
49.100	43.501	0.101
49.200	55.289	0.101
49.300	56.641	0.101
49.400	51.767	0.101
49.500	48.276	0.101
49.600	67.865	0.101
49.700	53.913	0.101
49.800	57.852	0.101
49.900	63.162	0.101
50.000	44.311	0.101
50.100	59.821	0.101
50.200	66.898	0.101
50.300	48.996	0.101
50.400	53.653	0.101
50.500	56.898	0.101
50.600	48.304	0.101
50.700	67.007	0.101
50.800	61.896	0.101
50.900	72.100	0.101
51.000	63.161	0.101
51.100	48.328	0.101
51.200	58.903	0.101
51.300	58.544	0.101
51.400	64.598	0.101
51.500	47.703	0.101
51.600	63.742	0.101
51.700	58.563	0.101
51.800	68.634	0.101
51.900	59.452	0.101
52.000	58.505	0.101
52.100	82.698	0.101
52.200	68.109	0.101
52.300	60.723	0.101
52.400	56.878	0.101
52.500	51.479	0.101
52.600	47.453	0.101
52.700	59.028	0.101
52.800	57.521	0.101
52.900	62.573	0.101
53.000	67.175	0.101
53.100	62.859	0.101
53.200	71.117	0.101
53.300	62.797	0.101
53.400	73.250	0.101
53.500	53.861	0.101
53.600	52.858	0.101
53.700	53.749	0.101
53.800	56.039	0.101
53.900	62.400	0.101
54.000	72.740	0.101
54.100	72.047	0.101
54.200	57.439	0.101
54.300	72.224	0.101
54.400	64.235	0.101
54.500	59.707	0.101
54.600	55.786	0.101
54.700	70.571	0.101
54.800	53.968	0.101
54.900	53.080	0.101
55.000	62.642	0.101
55.100	49.680	0.101
55.200	70.565	0.101
55.300	48.305	0.101
55.400	65.822	0.101
55.500	59.693	0.101
55.600	63.658	0.101
55.700	62.047	0.101
55.800	64.048	0.101
55.900	66.244	0.101
56.000	55.382	0.101
56.100	54.373	0.101
56.200	48.659	0.101
56.300	63.024	0.101
56.400	59.373	0.101
56.500	49.777	0.101
56.600	54.877	0.101
56.700	37.706	0.101
56.800	62.059	0.101
56.900	64.401	0.101
57.000	67.045	0.101
57.100	61.205	0.101
57.200	56.700	0.101
57.300	63.590	0.101
57.400	66.872	0.101
57.500	45.475	0.101
57.600	41.791	0.101
57.700	55.463	0.101
57.800	41.248	0.101
57.900	58.150	0.101
58.000	51.240	0.101
58.100	58.333	0.101
58.200	54.645	0.101
58.300	64.098	0.101
58.400	62.942	0.101
58.500	44.855	0.101
58.600	48.492	0.101
58.700	62.772	0.101
58.800	50.031	0.101
58.900	62.786	0.101
59.000	55.464	0.101
59.100	63.062	0.101
59.200	46.375	0.101
59.300	50.681	0.101
59.400	56.983	0.101
59.500	65.921	0.101
59.600	45.097	0.101
59.700	51.904	0.101
59.800	48.270	0.101
59.900	56.703	0.101
60.000	38.025	0.101
60.100	60.490	0.101
60.200	51.630	0.101
60.300	37.366	0.101
60.400	57.373	0.101
60.500	45.920	0.101
60.600	41.683	0.101
60.700	63.487	0.101
60.800	55.719	0.101
60.900	51.246	0.101
61.000	58.188	0.101
61.100	49.010	0.101
61.200	52.286	0.101
61.300	61.787	0.101
61.400	43.942	0.101
61.500	48.118	0.101
61.600	46.876	0.101
61.700	49.063	0.101
61.800	74.502	0.101
61.900	52.364	0.101
62.000	45.754	0.101
62.100	69.851	0.101
62.200	49.246	0.101
62.300	42.972	0.101
62.400	50.610	0.101
62.500	54.100	0.101
62.600	36.850	0.101
62.700	46.618	0.101
62.800	39.156	0.101
62.900	50.740	0.101
63.000	57.284	0.101
63.100	55.339	0.101
63.200	47.410	0.101
63.300	41.537	0.101
63.400	45.639	0.101
63.500	60.212	0.101
63.600	56.499	0.101
63.700	38.919	0.101
63.800	59.913	0.101
63.900	50.374	0.101
64.000	54.148	0.101
64.100	52.011	0.101
64.200	45.008	0.101
64.300	54.462	0.101
64.400	57.201	0.101
64.500	56.962	0.101
64.600	50.012	0.101
64.700	47.916	0.101
64.800	51.186	0.101
64.900	60.305	0.101
65.000	48.523	0.101
65.100	51.327	0.101
65.200	55.255	0.101
65.300	45.092	0.101
65.400	51.938	0.101
65.500	42.252	0.101
65.600	52.796	0.101
65.700	50.731	0.101
65.800	50.081	0.101
65.900	49.205	0.101
66.000	47.304	0.101
66.100	55.198	0.101
66.200	49.644	0.101
66.300	41.030	0.101
66.400	56.317	0.101
66.500	48.724	0.101
66.600	60.025	0.101
66.700	39.403	0.101
66.800	60.622	0.101
66.900	50.778	0.101
67.000	52.058	0.101
67.100	43.894	0.101
67.200	56.117	0.101
67.300	58.338	0.101
67.400	44.748	0.101
67.500	37.499	0.101
67.600	50.046	0.101
67.700	53.375	0.101
67.800	52.178	0.101
67.900	63.049	0.101
68.000	58.844	0.101
68.100	44.450	0.101
68.200	67.055	0.101
68.300	62.658	0.101
68.400	34.144	0.101
68.500	65.673	0.101
68.600	54.518	0.101
68.700	33.790	0.101
68.800	59.487	0.101
68.900	58.068	0.101
69.000	44.458	0.101
69.100	36.680	0.101
69.200	52.627	0.101
69.300	43.583	0.101
69.400	35.719	0.101
69.500	56.620	0.101
69.600	54.569	0.101
69.700	45.998	0.101
69.800	38.255	0.101
69.900	45.010	0.101
70.000	42.791	0.101
70.100	58.508	0.101
70.200	42.469	0.101
70.300	51.423	0.101
70.400	50.995	0.101
70.500	37.071	0.101
70.600	60.294	0.101
70.700	62.077	0.101
70.800	38.497	0.101
70.900	51.347	0.101
71.000	54.633	0.101
71.100	59.016	0.101
71.200	43.804	0.101
71.300	50.473	0.101
71.400	51.545	0.101
71.500	49.281	0.101
71.600	54.556	0.101
71.700	52.187	0.101
71.800	43.863	0.101
71.900	44.239	0.101
72.000	44.423	0.101
72.100	59.246	0.101
72.200	48.248	0.101
72.300	55.601	0.101
72.400	48.026	0.101
72.500	65.787	0.101
72.600	38.802	0.101
72.700	57.639	0.101
72.800	47.261	0.101
72.900	35.944	0.101
73.000	49.055	0.101
73.100	51.658	0.101
73.200	51.319	0.101
73.300	48.901	0.101
73.400	50.262	0.101
73.500	49.544	0.101
73.600	50.661	0.101
73.700	35.756	0.101
73.800	46.802	0.101
73.900	49.703	0.101
74.000	53.258	0.101
74.100	53.510	0.101
74.200	54.843	0.101
74.300	51.896	0.101
74.400	35.154	0.101
74.500	53.159	0.101
74.600	53.557	0.101
74.700	41.424	0.101
74.800	52.055	0.101
74.900	51.536	0.101
75.000	37.790	0.101
75.100	50.199	0.101
75.200	51.386	0.101
75.300	44.867	0.101
75.400	35.246	0.101
75.500	48.088	0.101
75.600	51.632	0.101
75.700	47.080	0.101
75.800	46.663	0.101
75.900	52.467	0.101
76.000	50.232	0.101
76.100	48.795	0.101
76.200	53.846	0.101
76.300	53.882	0.101
76.400	52.956	0.101
76.500	40.062	0.101
76.600	68.824	0.101
76.700	50.932	0.101
76.800	42.324	0.101
76.900	44.246	0.101
77.000	38.930	0.101
77.100	53.954	0.101
77.200	55.850	0.101
77.300	49.707	0.101
77.400	40.610	0.101
77.500	33.383	0.101
77.600	41.224	0.101
77.700	59.572	0.101
77.800	51.019	0.101
77.900	48.868	0.101
78.000	54.380	0.101
78.100	47.479	0.101
78.200	58.869	0.101
78.300	54.106	0.101
78.400	37.824	0.101
78.500	40.261	0.101
78.600	42.618	0.101
78.700	45.903	0.101
78.800	50.087	0.101
78.900	46.917	0.101
79.000	29.216	0.101
79.100	56.979	0.101
79.200	50.269	0.101
79.300	51.252	0.101
79.400	66.956	0.101
79.500	36.863	0.101
79.600	43.617	0.101
79.700	39.135	0.101
79.800	48.073	0.101
79.900	60.693	0.101
80.000	43.105	0.101
80.100	55.154	0.101
80.200	50.767	0.101
80.300	43.479	0.101
80.400	48.371	0.101
80.500	34.935	0.101
80.600	49.918	0.101
80.700	49.455	0.101
80.800	49.109	0.101
80.900	57.948	0.101
81.000	53.628	0.101
81.100	45.042	0.101
81.200	61.342	0.101
81.300	52.036	0.101
81.400	56.744	0.101
81.500	56.915	0.101
81.600	44.574	0.101
81.700	39.817	0.101
81.800	46.103	0.101
81.900	45.978	0.101
82.000	55.332	0.101
82.100	55.500	0.101
82.200	53.308	0.101
82.300	55.996	0.101
82.400	50.356	0.101
82.500	41.243	0.101
82.600	53.645	0.101
82.700	51.596	0.101
82.800	45.274	0.101
82.900	53.108	0.101
83.000	49.079	0.101
83.100	55.727	0.101
83.200	51.674	0.101
83.300	32.633	0.101
83.400	56.162	0.101
83.500	50.874	0.101
83.600	37.127	0.101
83.700	54.747	0.101
83.800	55.631	0.101
83.900	47.810	0.101
84.000	50.786	0.101
84.100	41.472	0.101
84.200	45.293	0.101
84.300	55.217	0.101
84.400	52.280	0.101
84.500	45.920	0.101
84.600	54.307	0.101
84.700	49.883	0.101
84.800	39.506	0.101
84.900	58.547	0.101
85.000	40.264	0.101
85.100	46.052	0.101
85.200	58.666	0.101
85.300	51.022	0.101
85.400	45.871	0.101
85.500	49.035	0.101
85.600	50.763	0.101
85.700	53.939	0.101
85.800	61.441	0.101
85.900	45.763	0.101
86.000	56.719	0.101
86.100	47.263	0.101
86.200	41.893	0.101
86.300	51.417	0.101
86.400	61.165	0.101
86.500	44.111	0.101
86.600	46.454	0.101
86.700	38.372	0.101
86.800	50.435	0.101
86.900	42.706	0.101
87.000	51.779	0.101
87.100	36.935	0.101
87.200	56.077	0.101
87.300	63.888	0.101
87.400	48.767	0.101
87.500	61.406	0.101
87.600	47.399	0.101
87.700	45.270	0.101
87.800	60.537	0.101
87.900	53.546	0.101
88.000	48.370	0.101
88.100	48.530	0.101
88.200	28.948	0.101
88.300	61.719	0.101
88.400	51.458	0.101
88.500	47.642	0.101
88.600	53.586	0.101
88.700	50.246	0.101
88.800	47.363	0.101
88.900	41.555	0.101
89.000	55.778	0.101
89.100	51.125	0.101
89.200	40.234	0.101
89.300	42.343	0.101
89.400	52.493	0.101
89.500	57.065	0.101
89.600	48.154	0.101
89.700	48.388	0.101
89.800	50.526	0.101
89.900	47.508	0.101
90.000	43.389	0.101
90.100	35.965	0.101
90.200	46.146	0.101
90.300	40.220	0.101
90.400	51.818	0.101
90.500	43.750	0.101
90.600	39.937	0.101
90.700	43.214	0.101
90.800	19.282	0.101
90.900	38.452	0.101
91.000	22.784	0.101
91.100	25.869	0.101
91.200	31.887	0.101
91.300	31.721	0.101
91.400	27.700	0.101
91.500	14.499	0.101
91.600	17.183	0.101
91.700	8.874	0.101
91.800	24.104	0.101
91.900	18.326	0.101
92.000	26.112	0.101
92.100	9.035	0.101
92.200	19.410	0.101
92.300	3.764	0.101
92.400	14.782	0.101
92.500	9.719	0.101
92.600	3.464	0.101
92.700	10.180	0.101
92.800	13.103	0.101
92.900	11.721	0.101
93.000	11.322	0.101
93.100	-0.191	0.101
93.200	14.259	0.101
93.300	14.068	0.101
93.400	6.685	0.101
93.500	6.971	0.101
93.600	11.604	0.101
93.700	5.946	0.101
93.800	-1.426	0.101
93.900	3.393	0.101
94.000	16.478	0.101
94.100	-1.831	0.101
94.200	-3.744	0.101
94.300	0.545	0.101
94.400	5.238	0.101
94.500	12.000	0.101
94.600	2.973	0.101
94.700	3.187	0.101
94.800	10.318	0.101
94.900	-8.400	0.101
