time /s	I /nA	E /V
0.100	1.797	0.099
0.200	0.404	0.099
0.300	5.174	0.099
0.400	6.480	0.099
0.500	2.991	0.099
0.600	4.039	0.099
0.700	5.010	0.099
0.800	5.700	0.099
0.900	-0.968	0.099
1.000	-1.874	0.099
1.100	1.774	0.099
1.200	0.956	0.099
1.300	5.207	0.099
1.400	6.843	0.099
1.500	5.880	0.099
1.600	8.993	0.099
1.700	6.019	0.099
1.800	5.635	0.099
1.900	5.713	0.099
2.000	2.944	0.099
2.100	-1.146	0.099
2.200	0.246	0.099
2.300	6.501	0.099
2.400	4.179	0.099
2.500	2.298	0.099
2.600	2.451	0.099
2.700	3.416	0.099
2.800	3.407	0.099
2.900	5.370	0.099
3.000	2.030	0.099
3.100	5.701	0.099
3.200	-1.537	0.099
3.300	4.283	0.099
3.400	4.087	0.099
3.500	-0.791	0.099
3.600	2.065	0.099
3.700	8.124	0.099
3.800	-2.501	0.099
3.900	-0.320	0.099
4.000	-0.214	0.099
4.100	2.914	0.099
4.200	2.843	0.099
4.300	0.913	0.099
4.400	3.946	0.099
4.500	2.727	0.099
4.600	1.908	0.099
4.700	7.109	0.099
4.800	-1.942	0.099
4.900	3.312	0.099
5.000	5.448	0.099
5.100	9.606	0.099
5.200	6.420	0.099
5.300	8.503	0.099
5.400	-1.218	0.099
5.500	5.407	0.099
5.600	6.615	0.099
5.700	0.459	0.099
5.800	3.454	0.099
5.900	5.597	0.099
6.000	-2.056	0.099
6.100	2.945	0.099
6.200	1.063	0.099
6.300	3.277	0.099
6.400	7.575	0.099
6.500	1.781	0.099
6.600	4.224	0.099
6.700	4.706	0.099
6.800	3.016	0.099
6.900	4.152	0.099
7.000	6.865	0.099
7.100	4.404	0.099
7.200	3.528	0.099
7.300	0.253	0.099
7.400	2.986	0.099
7.500	-3.138	0.099
7.600	3.338	0.099
7.700	1.758	0.099
7.800	3.500	0.099
7.900	-2.432	0.099
8.000	0.486	0.099
8.100	3.386	0.099
8.200	8.602	0.099
8.300	6.150	0.099
8.400	0.823	0.099
8.500	7.867	0.099
8.600	2.324	0.099
8.700	1.593	0.099
8.800	4.644	0.099
8.900	10.964	0.099
9.000	6.333	0.099
9.100	8.043	0.099
9.200	5.426	0.099
9.300	5.396	0.099
9.400	3.436	0.099
9.500	2.713	0.099
9.600	0.867	0.099
9.700	7.629	0.099
9.800	7.305	0.099
9.900	0.554	0.099
10.000	4.816	0.099
10.100	6.394	0.099
10.200	1.969	0.099
10.300	1.342	0.099
10.400	1.654	0.099
10.500	6.887	0.099
10.600	13.000	0.099
10.700	10.792	0.099
10.800	6.042	0.099
10.900	7.623	0.099
11.000	0.705	0.099
11.100	-4.496	0.099
11.200	-0.773	0.099
11.300	3.771	0.099
11.400	3.752	0.099
11.500	5.449	0.099
11.600	9.730	0.099
11.700	12.027	0.099
11.800	9.343	0.099
11.900	7.721	0.099
12.000	5.797	0.099
12.100	5.895	0.099
12.200	1.672	0.099
12.300	2.497	0.099
12.400	2.919	0.099
12.500	2.186	0.099
12.600	2.803	0.099
12.700	3.230	0.099
12.800	4.492	0.099
12.900	4.394	0.099
13.000	2.697	0.099
13.100	-5.212	0.099
13.200	2.241	0.099
13.300	4.126	0.099
13.400	4.587	0.099
13.500	-0.427	0.099
13.600	2.825	0.099
13.700	1.988	0.099
13.800	-0.633	0.099
13.900	4.459	0.099
14.000	1.654	0.100
14.100	3.398	0.100
14.200	5.962	0.100
14.300	8.069	0.100
14.400	6.154	0.100
14.500	2.634	0.100
14.600	-1.781	0.100
14.700	3.167	0.100
14.800	7.345	0.100
14.900	9.408	0.100
15.000	5.570	0.100
15.100	9.131	0.100
15.200	0.860	0.100
15.300	2.401	0.100
15.400	-1.962	0.100
15.500	3.552	0.100
15.600	-1.076	0.100
15.700	4.718	0.100
15.800	-3.501	0.100
15.900	-2.326	0.100
16.000	3.375	0.100
16.100	6.694	0.100
16.200	8.330	0.100
16.300	5.758	0.100
16.400	3.568	0.100
16.500	5.942	0.100
16.600	3.806	0.100
16.700	1.861	0.100
16.800	2.481	0.100
16.900	0.130	0.100
17.000	1.690	0.100
17.100	6.267	0.100
17.200	10.070	0.100
17.300	7.053	0.100
17.400	1.735	0.100
17.500	3.166	0.100
17.600	5.979	0.100
17.700	7.519	0.100
17.800	3.384	0.100
17.900	3.185	0.100
18.000	4.749	0.100
18.100	-4.045	0.100
18.200	5.794	0.100
18.300	5.312	0.100
18.400	9.433	0.100
18.500	3.373	0.100
18.600	-0.195	0.100
18.700	3.662	0.100
18.800	1.078	0.100
18.900	2.661	0.100
19.000	6.162	0.100
19.100	1.926	0.100
19.200	1.546	0.100
19.300	6.644	0.100
19.400	7.069	0.100
19.500	0.957	0.100
19.600	3.366	0.100
19.700	8.037	0.100
19.800	4.680	0.100
19.900	1.992	0.100
20.000	3.179	0.100
20.100	6.990	0.100
20.200	6.381	0.100
20.300	0.933	0.100
20.400	1.468	0.100
20.500	2.962	0.100
20.600	9.124	0.100
20.700	5.472	0.100
20.800	3.671	0.100
20.900	3.366	0.100
21.000	-1.436	0.100
21.100	2.160	0.100
21.200	8.713	0.100
21.300	8.975	0.100
21.400	7.347	0.100
21.500	2.596	0.100
21.600	0.593	0.100
21.700	0.862	0.100
21.800	-3.157	0.100
21.900	6.448	0.100
22.000	4.397	0.100
22.100	7.453	0.100
22.200	0.511	0.100
22.300	7.631	0.100
22.400	9.636	0.100
22.500	5.393	0.100
22.600	8.526	0.100
22.700	8.264	0.100
22.800	6.282	0.100
22.900	1.166	0.100
23.000	5.141	0.100
23.100	4.733	0.100
23.200	3.157	0.100
23.300	4.732	0.100
23.400	5.836	0.100
23.500	7.620	0.100
23.600	4.597	0.100
23.700	0.245	0.100
23.800	1.024	0.100
23.900	7.897	0.100
24.000	-1.512	0.100
24.100	-1.874	0.100
24.200	-4.723	0.100
24.300	4.397	0.100
24.400	5.858	0.100
24.500	7.126	0.100
24.600	2.770	0.100
24.700	-2.707	0.100
24.800	1.124	0.100
24.900	3.216	0.100
25.000	4.827	0.100
25.100	6.366	0.100
25.200	6.765	0.100
25.300	8.891	0.100
25.400	8.430	0.100
25.500	3.236	0.100
25.600	6.281	0.100
25.700	7.441	0.100
25.800	-0.301	0.100
25.900	3.999	0.100
26.000	4.277	0.100
26.100	2.759	0.100
26.200	5.111	0.100
26.300	0.799	0.100
26.400	4.677	0.100
26.500	7.076	0.100
26.600	6.513	0.100
26.700	3.392	0.100
26.800	4.679	0.100
26.900	0.280	0.100
27.000	0.026	0.100
27.100	7.772	0.100
27.200	-1.419	0.100
27.300	-1.995	0.100
27.400	-3.556	0.100
27.500	3.014	0.100
27.600	3.327	0.100
27.700	6.695	0.100
27.800	5.528	0.100
27.900	0.043	0.100
28.000	3.665	0.100
28.100	2.417	0.100
28.200	6.026	0.100
28.300	3.113	0.100
28.400	0.620	0.100
28.500	-2.856	0.100
28.600	-1.933	0.100
28.700	5.681	0.100
28.800	7.075	0.100
28.900	2.003	0.100
29.000	3.978	0.100
29.100	6.514	0.100
29.200	3.780	0.100
29.300	6.398	0.100
29.400	6.078	0.100
29.500	1.134	0.100
29.600	-5.019	0.100
29.700	1.036	0.100
29.800	3.313	0.100
29.900	2.148	0.100
30.000	8.906	0.100
30.100	5.084	0.100
30.200	0.221	0.100
30.300	0.566	0.100
30.400	-1.354	0.100
30.500	3.222	0.100
30.600	3.442	0.100
30.700	5.985	0.100
30.800	6.202	0.100
30.900	6.656	0.100
31.000	3.202	0.100
31.100	7.614	0.100
31.200	8.081	0.100
31.300	9.944	0.100
31.400	12.527	0.100
31.500	15.262	0.100
31.600	14.549	0.100
31.700	10.583	0.100
31.800	9.011	0.100
31.900	9.975	0.100
32.000	10.599	0.100
32.100	13.390	0.100
32.200	11.644	0.100
32.300	13.379	0.100
32.400	11.506	0.100
32.500	12.109	0.100
32.600	6.502	0.100
32.700	5.389	0.100
32.800	14.702	0.100
32.900	16.247	0.100
33.000	14.961	0.100
33.100	11.215	0.100
33.200	14.728	0.100
33.300	19.872	0.100
33.400	11.994	0.100
33.500	12.380	0.100
33.600	19.869	0.100
33.700	20.751	0.100
33.800	17.979	0.100
33.900	21.545	0.100
34.000	16.257	0.100
34.100	21.199	0.100
34.200	16.356	0.100
34.300	17.762	0.100
34.400	15.658	0.100
34.500	20.390	0.100
34.600	20.244	0.100
34.700	23.424	0.100
34.800	17.700	0.100
34.900	19.143	0.100
35.000	27.154	0.100
35.100	32.031	0.100
35.200	26.236	0.100
35.300	27.445	0.100
35.400	24.280	0.100
35.500	25.411	0.100
35.600	28.061	0.100
35.700	30.953	0.100
35.800	26.210	0.100
35.900	25.845	0.100
36.000	25.206	0.100
36.100	24.250	0.100
36.200	29.185	0.100
36.300	24.468	0.100
36.400	23.785	0.100
36.500	27.168	0.100
36.600	31.865	0.100
36.700	23.856	0.100
36.800	20.404	0.100
36.900	30.598	0.100
37.000	31.373	0.100
37.100	29.507	0.100
37.200	31.002	0.100
37.300	32.250	0.100
37.400	33.534	0.100
37.500	33.470	0.100
37.600	26.367	0.100
37.700	26.609	0.100
37.800	36.141	0.100
37.900	34.428	0.100
38.000	32.953	0.100
38.100	29.246	0.100
38.200	25.080	0.100
38.300	29.228	0.100
38.400	29.896	0.100
38.500	36.785	0.100
38.600	33.871	0.100
38.700	36.208	0.100
38.800	29.734	0.100
38.900	30.288	0.100
39.000	30.132	0.100
39.100	30.855	0.100
39.200	36.401	0.100
39.300	36.405	0.100
39.400	35.222	0.100
39.500	32.984	0.100
39.600	37.455	0.100
39.700	35.329	0.100
39.800	32.611	0.100
39.900	33.978	0.100
40.000	31.379	0.100
40.100	37.557	0.100
40.200	36.820	0.100
40.300	37.624	0.100
40.400	31.775	0.100
40.500	32.143	0.100
40.600	29.227	0.100
40.700	38.164	0.100
40.800	38.714	0.100
40.900	31.870	0.100
41.000	28.433	0.100
41.100	31.336	0.100
41.200	35.831	0.100
41.300	36.514	0.100
41.400	33.800	0.100
41.500	28.502	0.100
41.600	26.592	0.100
41.700	33.888	0.100
41.800	37.397	0.100
41.900	41.958	0.100
42.000	36.959	0.100
42.100	33.484	0.100
42.200	27.247	0.100
42.300	35.359	0.100
42.400	35.768	0.100
42.500	35.479	0.100
42.600	36.895	0.100
42.700	32.229	0.100
42.800	35.566	0.100
42.900	38.511	0.100
43.000	33.310	0.100
43.100	34.879	0.100
43.200	36.674	0.100
43.300	33.624	0.100
43.400	34.635	0.100
43.500	30.839	0.100
43.600	32.438	0.100
43.700	33.501	0.100
43.800	35.236	0.100
43.900	32.079	0.100
44.000	31.709	0.100
44.100	33.897	0.100
44.200	34.876	0.100
44.300	33.249	0.100
44.400	33.287	0.100
44.500	34.605	0.100
44.600	33.686	0.100
44.700	36.881	0.100
44.800	34.635	0.100
44.900	33.044	0.100
45.000	30.673	0.100
45.100	29.433	0.100
45.200	30.938	0.100
45.300	36.196	0.100
45.400	35.615	0.100
45.500	37.525	0.100
45.600	37.392	0.100
45.700	30.412	0.100
45.800	26.500	0.100
45.900	30.520	0.100
46.000	34.210	0.100
46.100	31.548	0.100
46.200	31.406	0.100
46.300	36.078	0.100
46.400	36.387	0.100
46.500	38.094	0.100
46.600	35.732	0.100
46.700	28.406	0.100
46.800	28.661	0.100
46.900	30.884	0.100
47.000	42.303	0.100
47.100	39.178	0.100
47.200	40.803	0.100
47.300	37.319	0.100
47.400	38.432	0.100
47.500	31.522	0.100
47.600	33.607	0.100
47.700	36.564	0.100
47.800	35.163	0.100
47.900	24.909	0.100
48.000	34.969	0.100
48.100	33.612	0.100
48.200	33.566	0.100
48.300	34.629	0.100
48.400	29.969	0.100
48.500	30.089	0.100
48.600	35.872	0.100
48.700	33.077	0.100
48.800	30.516	0.100
48.900	33.025	0.100
49.000	34.039	0.100
49.100	29.151	0.100
49.200	31.395	0.100
49.300	26.337	0.100
49.400	29.473	0.100
49.500	33.785	0.100
49.600	40.228	0.100
49.700	30.179	0.100
49.800	36.694	0.100
49.900	28.043	0.100
50.000	29.373	0.100
50.100	31.487	0.100
50.200	33.577	0.100
50.300	28.423	0.100
50.400	31.547	0.100
50.500	27.874	0.100
50.600	38.882	0.100
50.700	34.723	0.100
50.800	37.613	0.100
50.900	28.616	0.100
51.000	32.155	0.100
51.100	38.725	0.100
51.200	34.900	0.100
51.300	32.649	0.100
51.400	24.539	0.100
51.500	24.016	0.100
51.600	31.783	0.100
51.700	32.833	0.100
51.800	31.140	0.100
51.900	33.132	0.100
52.000	35.100	0.100
52.100	34.965	0.100
52.200	34.095	0.100
52.300	30.817	0.100
52.400	28.428	0.100
52.500	31.857	0.100
52.600	35.488	0.100
52.700	29.798	0.100
52.800	32.919	0.100
52.900	31.536	0.100
53.000	28.947	0.100
53.100	28.523	0.100
53.200	36.675	0.100
53.300	34.689	0.100
53.400	35.888	0.100
53.500	34.779	0.100
53.600	27.170	0.100
53.700	28.445	0.100
53.800	32.205	0.100
53.900	33.432	0.100
54.000	34.337	0.100
54.100	27.498	0.100
54.200	31.765	0.100
54.300	32.703	0.100
54.400	31.892	0.100
54.500	27.780	0.100
54.600	24.783	0.100
54.700	30.894	0.100
54.800	31.840	0.100
54.900	32.820	0.100
55.000	32.148	0.100
55.100	30.292	0.100
55.200	30.546	0.100
55.300	33.639	0.100
55.400	32.838	0.100
55.500	26.844	0.100
55.600	27.736	0.100
55.700	26.287	0.100
55.800	32.831	0.100
55.900	37.609	0.100
56.000	35.931	0.100
56.100	30.172	0.100
56.200	32.618	0.100
56.300	30.562	0.100
56.400	29.169	0.100
56.500	35.143	0.100
56.600	34.606	0.100
56.700	29.286	0.100
56.800	30.467	0.100
56.900	30.372	0.100
57.000	27.703	0.100
57.100	28.272	0.100
57.200	29.703	0.100
57.300	37.990	0.100
57.400	37.540	0.100
57.500	33.785	0.100
57.600	32.291	0.100
57.700	30.456	0.100
57.800	33.252	0.100
57.900	35.086	0.100
58.000	31.997	0.100
58.100	24.701	0.100
58.200	30.209	0.100
58.300	28.736	0.100
58.400	31.507	0.100
58.500	32.116	0.100
58.600	31.584	0.100
58.700	29.467	0.100
58.800	30.448	0.100
58.900	35.491	0.100
59.000	31.069	0.100
59.100	31.649	0.100
59.200	32.480	0.100
59.300	27.607	0.100
59.400	29.842	0.100
59.500	29.351	0.100
59.600	30.056	0.100
59.700	25.735	0.100
59.800	33.266	0.100
59.900	31.257	0.100
60.000	28.088	0.100
60.100	32.776	0.100
60.200	29.791	0.100
60.300	28.773	0.100
60.400	30.145	0.100
60.500	33.381	0.100
60.600	32.076	0.100
60.700	31.883	0.100
60.800	27.848	0.100
60.900	30.354	0.100
61.000	32.411	0.100
61.100	31.557	0.100
61.200	29.321	0.100
61.300	31.592	0.100
61.400	32.269	0.100
61.500	28.324	0.100
61.600	30.374	0.100
61.700	31.382	0.100
61.800	32.502	0.100
61.900	32.702	0.100
62.000	31.777	0.100
62.100	31.305	0.100
62.200	38.026	0.100
62.300	36.149	0.100
62.400	36.024	0.100
62.500	32.296	0.100
62.600	33.958	0.100
62.700	33.228	0.100
62.800	30.479	0.100
62.900	35.863	0.100
63.000	32.837	0.100
63.100	38.516	0.100
63.200	37.589	0.100
63.300	28.164	0.100
63.400	30.973	0.100
63.500	28.348	0.100
63.600	31.016	0.100
63.700	30.827	0.100
63.800	29.173	0.100
63.900	30.281	0.100
64.000	34.926	0.100
64.100	37.214	0.100
64.200	32.619	0.100
64.300	29.442	0.100
64.400	34.245	0.100
64.500	29.053	0.100
64.600	31.726	0.100
64.700	34.821	0.100
64.800	40.660	0.100
64.900	31.274	0.100
65.000	30.343	0.100
65.100	34.858	0.100
65.200	32.624	0.100
65.300	37.029	0.100
65.400	29.113	0.100
65.500	30.913	0.100
65.600	30.478	0.100
65.700	34.503	0.100
65.800	37.776	0.100
65.900	41.072	0.100
66.000	35.064	0.100
66.100	36.518	0.100
66.200	29.172	0.100
66.300	35.901	0.100
66.400	29.295	0.100
66.500	31.461	0.100
66.600	30.316	0.100
66.700	29.439	0.100
66.800	33.789	0.100
66.900	33.984	0.100
67.000	30.535	0.100
67.100	40.266	0.100
67.200	40.693	0.100
67.300	34.425	0.100
67.400	35.246	0.100
67.500	32.745	0.100
67.600	31.826	0.100
67.700	35.958	0.100
67.800	26.871	0.100
67.900	32.870	0.100
68.000	37.640	0.100
68.100	31.146	0.100
68.200	34.022	0.100
68.300	30.789	0.100
68.400	26.961	0.100
68.500	28.196	0.100
68.600	35.903	0.100
68.700	38.015	0.100
68.800	29.507	0.100
68.900	40.200	0.100
69.000	30.489	0.100
69.100	34.168	0.100
69.200	35.661	0.100
69.300	36.083	0.100
69.400	32.956	0.100
69.500	35.060	0.100
69.600	31.791	0.100
69.700	33.342	0.100
69.800	39.605	0.100
69.900	36.288	0.100
70.000	35.163	0.100
70.100	37.274	0.100
70.200	28.626	0.100
70.300	35.128	0.100
70.400	39.136	0.100
70.500	35.930	0.100
70.600	33.947	0.100
70.700	33.772	0.100
70.800	33.143	0.100
70.900	30.347	0.100
71.000	27.400	0.100
71.100	34.671	0.100
71.200	35.174	0.100
71.300	36.809	0.100
71.400	34.190	0.100
71.500	22.122	0.100
71.600	31.314	0.100
71.700	33.680	0.100
71.800	32.902	0.100
71.900	34.881	0.100
72.000	36.594	0.100
72.100	38.255	0.100
72.200	37.750	0.100
72.300	34.692	0.100
72.400	34.986	0.100
72.500	36.219	0.100
72.600	34.399	0.100
72.700	32.778	0.100
72.800	36.528	0.100
72.900	41.577	0.100
73.000	37.135	0.100
73.100	38.137	0.100
73.200	35.819	0.100
73.300	36.621	0.100
73.400	35.220	0.100
73.500	39.126	0.100
73.600	35.620	0.100
73.700	38.882	0.100
73.800	32.562	0.100
73.900	30.307	0.100
74.000	36.629	0.100
74.100	35.434	0.100
74.200	38.488	0.100
74.300	31.749	0.100
74.400	34.086	0.100
74.500	35.341	0.100
74.600	33.840	0.100
74.700	41.344	0.100
74.800	32.877	0.100
74.900	35.487	0.100
75.000	31.697	0.100
75.100	31.995	0.100
75.200	38.178	0.100
75.300	44.069	0.100
75.400	30.894	0.100
75.500	38.546	0.100
75.600	34.048	0.100
75.700	33.443	0.100
75.800	36.781	0.100
75.900	34.632	0.100
76.000	33.925	0.100
76.100	38.183	0.100
76.200	36.747	0.100
76.300	34.828	0.100
76.400	40.262	0.100
76.500	37.478	0.100
76.600	35.480	0.100
76.700	35.028	0.100
76.800	38.147	0.100
76.900	34.808	0.100
77.000	32.709	0.100
77.100	32.401	0.100
77.200	36.323	0.100
77.300	36.338	0.100
77.400	34.161	0.100
77.500	35.686	0.100
77.600	40.247	0.100
77.700	37.061	0.100
77.800	35.349	0.100
77.900	39.992	0.100
78.000	38.473	0.100
78.100	34.165	0.100
78.200	32.378	0.100
78.300	31.904	0.100
78.400	35.246	0.100
78.500	33.912	0.100
78.600	35.219	0.100
78.700	27.604	0.100
78.800	41.015	0.100
78.900	39.128	0.100
79.000	38.737	0.100
79.100	39.699	0.100
79.200	40.176	0.100
79.300	36.149	0.100
79.400	31.342	0.100
79.500	34.070	0.100
79.600	34.342	0.100
79.700	37.225	0.100
79.800	34.524	0.100
79.900	33.638	0.100
80.000	41.018	0.100
80.100	42.688	0.100
80.200	34.527	0.100
80.300	40.300	0.100
80.400	36.668	0.100
80.500	34.028	0.100
80.600	37.118	0.100
80.700	40.996	0.100
80.800	37.753	0.100
80.900	38.799	0.100
81.000	39.260	0.100
81.100	35.693	0.100
81.200	36.532	0.100
81.300	40.725	0.100
81.400	33.653	0.100
81.500	34.979	0.100
81.600	40.295	0.100
81.700	30.362	0.100
81.800	39.850	0.100
81.900	39.925	0.100
82.000	33.529	0.100
82.100	36.943	0.100
82.200	37.134	0.100
82.300	37.142	0.100
82.400	37.774	0.100
82.500	44.152	0.100
82.600	38.671	0.100
82.700	42.204	0.100
82.800	39.232	0.100
82.900	38.612	0.100
83.000	34.761	0.100
83.100	37.546	0.100
83.200	33.963	0.100
83.300	37.204	0.100
83.400	41.641	0.100
83.500	37.367	0.100
83.600	37.122	0.100
83.700	38.468	0.100
83.800	36.121	0.100
83.900	36.967	0.100
84.000	35.873	0.100
84.100	40.265	0.100
84.200	42.116	0.100
84.300	38.263	0.100
84.400	39.348	0.100
84.500	36.358	0.100
84.600	39.694	0.100
84.700	38.720	0.100
84.800	40.180	0.100
84.900	38.620	0.100
85.000	33.943	0.100
85.100	35.702	0.100
85.200	29.846	0.100
85.300	35.304	0.100
85.400	35.225	0.100
85.500	42.195	0.100
85.600	37.042	0.100
85.700	36.719	0.100
85.800	46.092	0.100
85.900	37.519	0.100
86.000	35.037	0.100
86.100	42.666	0.100
86.200	37.314	0.100
86.300	39.564	0.100
86.400	41.364	0.100
86.500	37.300	0.100
86.600	39.374	0.100
86.700	36.960	0.100
86.800	45.180	0.100
86.900	41.142	0.100
87.000	33.554	0.100
87.100	39.933	0.100
87.200	34.308	0.100
87.300	38.412	0.100
87.400	41.796	0.100
87.500	41.800	0.100
87.600	29.250	0.100
87.700	36.068	0.100
87.800	43.807	0.100
87.900	38.354	0.100
88.000	35.683	0.100
88.100	36.911	0.100
88.200	41.484	0.100
88.300	36.616	0.100
88.400	37.822	0.100
88.500	33.422	0.100
88.600	33.803	0.100
88.700	40.113	0.100
88.800	33.587	0.100
88.900	34.999	0.100
89.000	34.985	0.100
89.100	42.319	0.100
89.200	34.936	0.100
89.300	39.898	0.100
89.400	38.844	0.100
89.500	37.884	0.100
89.600	40.687	0.100
89.700	42.250	0.100
89.800	42.226	0.100
89.900	37.612	0.100
90.000	34.703	0.100
90.100	41.072	0.100
90.200	38.936	0.100
90.300	41.847	0.100
90.400	39.265	0.100
90.500	35.543	0.100
90.600	32.339	0.100
90.700	35.748	0.100
90.800	32.425	0.100
90.900	39.719	0.100
91.000	34.950	0.100
91.100	29.648	0.100
91.200	27.508	0.100
91.300	30.116	0.100
91.400	22.683	0.100
91.500	28.884	0.100
91.600	22.434	0.100
91.700	27.358	0.100
91.800	27.162	0.100
91.900	21.484	0.100
92.000	28.204	0.100
92.100	23.909	0.100
92.200	19.581	0.100
92.300	16.085	0.100
92.400	24.417	0.100
92.500	18.407	0.100
92.600	12.515	0.100
92.700	14.511	0.100
92.800	13.433	0.100
92.900	9.276	0.100
93.000	11.364	0.100
93.100	15.314	0.100
93.200	11.712	0.100
93.300	11.228	0.100
93.400	9.571	0.100
93.500	13.310	0.100
93.600	5.051	0.100
93.700	4.998	0.100
93.800	10.236	0.100
93.900	10.419	0.100
94.000	16.238	0.100
94.100	12.311	0.100
94.200	3.354	0.100
94.300	7.364	0.100
94.400	12.131	0.100
94.500	12.147	0.100
94.600	6.116	0.100
94.700	3.546	0.100
94.800	0.066	0.100
94.900	8.652	0.100
95.000	11.021	0.100
95.100	11.216	0.100
95.200	7.623	0.100
95.300	11.638	0.100
95.400	3.733	0.100
95.500	9.052	0.100
95.600	0.640	0.100
95.700	1.408	0.100
95.800	9.679	0.100
95.900	1.259	0.100
96.000	-3.604	0.100
96.100	-0.169	0.100
96.200	0.775	0.100
96.300	11.022	0.100
96.400	9.229	0.100
96.500	4.224	0.100
96.600	2.256	0.100
96.700	4.421	0.100
96.800	6.314	0.100
96.900	7.905	0.100
97.000	3.737	0.100
