time /s	I /nA	E /V
0.100	-26.498	0.100
0.200	-18.724	0.100
0.300	-23.405	0.100
0.400	-29.460	0.100
0.500	-19.483	0.100
0.600	-28.655	0.100
0.700	-35.954	0.100
0.800	-17.152	0.100
0.900	-15.134	0.100
1.000	-33.025	0.100
1.100	-24.378	0.100
1.200	-20.942	0.100
1.300	-15.636	0.100
1.400	-22.738	0.100
1.500	-26.361	0.100
1.600	-14.566	0.100
1.700	-11.682	0.100
1.800	-22.178	0.100
1.900	-27.923	0.100
2.000	-1.118	0.100
2.100	-15.939	0.100
2.200	-3.820	0.100
2.300	-12.935	0.100
2.400	-12.599	0.100
2.500	-13.234	0.100
2.600	-30.032	0.100
2.700	-23.951	0.100
2.800	-22.391	0.100
2.900	-20.019	0.100
3.000	-21.261	0.100
3.100	-18.947	0.100
3.200	-13.433	0.100
3.300	-25.478	0.100
3.400	-16.281	0.100
3.500	-30.659	0.100
3.600	-23.940	0.100
3.700	-9.491	0.100
3.800	-14.100	0.100
3.900	-18.555	0.100
4.000	-17.630	0.100
4.100	-31.609	0.100
4.200	-25.800	0.100
4.300	-7.480	0.100
4.400	-20.496	0.100
4.500	-12.654	0.100
4.600	-26.722	0.100
4.700	-27.606	0.100
4.800	-32.400	0.100
4.900	-22.641	0.100
5.000	-16.582	0.100
5.100	0.348	0.100
5.200	-28.975	0.100
5.300	-40.951	0.100
5.400	-21.965	0.100
5.500	-13.854	0.100
5.600	-9.149	0.100
5.700	-18.389	0.100
5.800	-22.506	0.100
5.900	-33.931	0.100
6.000	-0.213	0.100
6.100	-11.907	0.100
6.200	-12.475	0.100
6.300	-15.012	0.100
6.400	-33.843	0.100
6.500	-15.518	0.100
6.600	-17.776	0.100
6.700	-37.737	0.100
6.800	-20.533	0.100
6.900	-18.939	0.100
7.000	-2.314	0.100
7.100	-30.297	0.100
7.200	-4.703	0.100
7.300	-11.771	0.100
7.400	-29.953	0.100
7.500	-22.277	0.100
7.600	-10.499	0.100
7.700	-3.593	0.100
7.800	-25.328	0.100
7.900	-24.689	0.100
8.000	-14.891	0.100
8.100	-28.116	0.100
8.200	-31.551	0.100
8.300	-9.059	0.100
8.400	-13.464	0.100
8.500	-19.028	0.100
8.600	-17.931	0.100
8.700	-24.606	0.100
8.800	-3.187	0.100
8.900	-10.103	0.100
9.000	-23.075	0.100
9.100	-28.341	0.100
9.200	-26.142	0.100
9.300	-30.588	0.100
9.400	-11.705	0.100
9.500	-16.569	0.100
9.600	-4.975	0.100
9.700	-21.127	0.100
9.800	-26.834	0.100
9.900	-13.763	0.100
10.000	-30.289	0.100
10.100	-0.532	0.100
10.200	-27.092	0.100
10.300	-14.492	0.100
10.400	-30.601	0.100
10.500	-17.935	0.100
10.600	-22.425	0.100
10.700	-22.370	0.100
10.800	-15.886	0.100
10.900	-22.980	0.100
11.000	-24.037	0.100
11.100	1.304	0.100
11.200	-48.429	0.100
11.300	4.181	0.100
11.400	-10.963	0.100
11.500	-20.850	0.100
11.600	-18.702	0.100
11.700	-17.509	0.100
11.800	-15.381	0.100
11.900	-33.331	0.100
12.000	-29.989	0.100
12.100	-1.822	0.100
12.200	-30.178	0.100
12.300	-22.741	0.100
12.400	-10.286	0.100
12.500	-18.880	0.100
12.600	-23.958	0.100
12.700	-31.454	0.100
12.800	-4.705	0.100
12.900	-13.728	0.100
13.000	-17.852	0.100
13.100	-36.827	0.100
13.200	-30.988	0.100
13.300	-25.822	0.100
13.400	-13.023	0.100
13.500	-2.116	0.100
13.600	-2.363	0.100
13.700	-36.471	0.100
13.800	-18.472	0.100
13.900	-13.442	0.100
14.000	-9.049	0.100
14.100	-18.625	0.100
14.200	-28.673	0.100
14.300	-14.166	0.100
14.400	-12.194	0.100
14.500	-17.090	0.100
14.600	-16.208	0.100
14.700	-20.987	0.100
14.800	-24.799	0.100
14.900	-12.550	0.100
15.000	-32.555	0.100
15.100	-23.920	0.100
15.200	-34.871	0.100
15.300	-2.521	0.100
15.400	-28.587	0.100
15.500	-17.825	0.100
15.600	-12.521	0.100
15.700	-22.092	0.100
15.800	-31.019	0.100
15.900	-6.840	0.100
16.000	-10.518	0.100
16.100	-23.813	0.100
16.200	-20.321	0.100
16.300	-11.713	0.100
16.400	-24.293	0.100
16.500	-17.296	0.100
16.600	-28.491	0.100
16.700	-22.809	0.100
16.800	-19.564	0.100
16.900	-30.165	0.100
17.000	-27.494	0.100
17.100	-13.691	0.100
17.200	-3.618	0.100
17.300	-31.055	0.100
17.400	-13.490	0.100
17.500	-1.266	0.100
17.600	-44.131	0.100
17.700	-19.263	0.100
17.800	-12.293	0.100
17.900	-10.040	0.100
18.000	-14.171	0.100
18.100	1.769	0.100
18.200	-18.254	0.100
18.300	-11.876	0.100
18.400	-20.836	0.100
18.500	-6.809	0.100
18.600	-20.155	0.100
18.700	-32.417	0.100
18.800	-13.303	0.100
18.900	-16.604	0.100
19.000	-17.104	0.100
19.100	-13.687	0.100
19.200	-15.947	0.100
19.300	-16.803	0.100
19.400	-29.816	0.100
19.500	-21.527	0.100
19.600	-30.337	0.100
19.700	-27.359	0.100
19.800	-19.965	0.100
19.900	-13.182	0.100
20.000	-25.276	0.100
20.100	-25.239	0.100
20.200	-34.964	0.100
20.300	2.668	0.100
20.400	-16.111	0.100
20.500	-15.752	0.100
20.600	-20.455	0.100
20.700	-10.602	0.100
20.800	-31.791	0.100
20.900	-24.038	0.100
21.000	-22.892	0.100
21.100	-19.581	0.100
21.200	-7.089	0.100
21.300	-21.571	0.100
21.400	-4.551	0.100
21.500	-28.082	0.100
21.600	-9.752	0.100
21.700	-19.989	0.100
21.800	-7.106	0.100
21.900	-7.115	0.100
22.000	-33.482	0.100
22.100	-9.090	0.100
22.200	-29.239	0.100
22.300	-2.680	0.100
22.400	-10.464	0.100
22.500	-19.950	0.100
22.600	-23.141	0.100
22.700	-25.120	0.100
22.800	-6.730	0.100
22.900	-18.614	0.100
23.000	-22.075	0.100
23.100	-11.191	0.100
23.200	-7.996	0.100
23.300	-15.825	0.100
23.400	-24.900	0.100
23.500	-24.966	0.100
23.600	-28.396	0.100
23.700	-3.037	0.100
23.800	-31.493	0.100
23.900	-11.664	0.100
24.000	-15.263	0.100
24.100	-26.143	0.100
24.200	-36.259	0.100
24.300	-26.234	0.100
24.400	-22.007	0.100
24.500	-16.720	0.100
24.600	-19.287	0.100
24.700	-11.325	0.100
24.800	-39.447	0.100
24.900	-17.519	0.100
25.000	-26.459	0.100
25.100	-27.473	0.100
25.200	-15.003	0.100
25.300	-22.771	0.100
25.400	-13.251	0.100
25.500	-29.531	0.100
25.600	-16.602	0.100
25.700	-30.787	0.100
25.800	-13.595	0.100
25.900	-16.771	0.100
26.000	-3.306	0.100
26.100	-11.525	0.101
26.200	-32.929	0.100
26.300	-15.811	0.100
26.400	-17.217	0.101
26.500	-23.476	0.100
26.600	-28.971	0.100
26.700	-3.859	0.101
26.800	-9.344	0.100
26.900	-12.520	0.101
27.000	-28.933	0.101
27.100	-37.812	0.100
27.200	-14.969	0.100
27.300	-11.533	0.100
27.400	-15.041	0.101
27.500	-28.877	0.101
27.600	1.027	0.100
27.700	-50.855	0.100
27.800	-31.396	0.100
27.900	-12.950	0.101
28.000	-13.505	0.100
28.100	-22.129	0.100
28.200	-8.910	0.101
28.300	-21.933	0.100
28.400	-7.646	0.100
28.500	-20.766	0.100
28.600	-23.936	0.100
28.700	-26.270	0.101
28.800	-25.384	0.101
28.900	-10.306	0.101
29.000	-12.614	0.100
29.100	-7.543	0.100
29.200	-32.731	0.100
29.300	-19.264	0.100
29.400	-13.159	0.100
29.500	-6.973	0.101
29.600	-33.378	0.101
29.700	-18.227	0.100
29.800	-27.124	0.100
29.900	-18.345	0.101
30.000	-22.675	0.100
30.100	-7.991	0.101
30.200	-7.247	0.101
30.300	-33.079	0.100
30.400	12.822	0.101
30.500	-37.205	0.100
30.600	-24.171	0.101
30.700	-14.712	0.100
30.800	-30.359	0.100
30.900	-18.146	0.101
31.000	4.406	0.100
31.100	-25.825	0.100
31.200	-16.059	0.101
31.300	3.113	0.101
31.400	-5.535	0.101
31.500	-11.156	0.101
31.600	-14.574	0.100
31.700	-0.508	0.101
31.800	-31.827	0.101
31.900	-0.374	0.100
32.000	-14.483	0.101
32.100	-13.543	0.101
32.200	-5.399	0.101
32.300	3.470	0.100
32.400	-10.391	0.100
32.500	1.876	0.101
32.600	-12.228	0.100
32.700	-17.031	0.100
32.800	-15.158	0.100
32.900	-2.350	0.101
33.000	-10.874	0.101
33.100	14.680	0.101
33.200	-10.534	0.100
33.300	5.760	0.101
33.400	-12.272	0.100
33.500	-15.093	0.101
33.600	0.911	0.101
33.700	-22.592	0.101
33.800	-9.231	0.100
33.900	15.454	0.101
34.000	2.271	0.101
34.100	-10.013	0.101
34.200	-19.656	0.101
34.300	-1.227	0.101
34.400	-11.167	0.101
34.500	-18.147	0.101
34.600	-14.228	0.101
34.700	14.557	0.101
34.800	1.822	0.100
34.900	-22.210	0.101
35.000	-16.291	0.101
35.100	-16.060	0.101
35.200	9.799	0.101
35.300	-22.586	0.101
35.400	-0.362	0.101
35.500	-19.106	0.101
35.600	-4.793	0.101
35.700	-3.747	0.101
35.800	-12.582	0.101
35.900	0.934	0.101
36.000	-19.106	0.101
36.100	3.864	0.101
36.200	-9.061	0.101
36.300	-9.241	0.101
36.400	-10.444	0.101
36.500	-23.106	0.101
36.600	-21.429	0.101
36.700	-12.352	0.101
36.800	-10.434	0.101
36.900	-1.767	0.101
37.000	5.005	0.101
37.100	6.325	0.101
37.200	-17.934	0.101
37.300	-4.218	0.101
37.400	-7.559	0.101
37.500	2.329	0.101
37.600	-3.526	0.101
37.700	5.234	0.101
37.800	5.619	0.101
37.900	0.210	0.101
38.000	-14.043	0.101
38.100	-7.266	0.101
38.200	-25.257	0.101
38.300	-2.911	0.101
38.400	7.706	0.101
38.500	-8.888	0.101
38.600	-22.237	0.101
38.700	5.197	0.101
38.800	-9.367	0.101
38.900	-0.528	0.101
39.000	0.265	0.101
39.100	-7.763	0.101
39.200	-0.634	0.101
39.300	-29.059	0.101
39.400	6.634	0.101
39.500	-23.575	0.101
39.600	5.845	0.101
39.700	-14.438	0.101
39.800	-21.718	0.101
39.900	-10.517	0.101
40.000	-0.198	0.101
40.100	2.158	0.101
40.200	-2.033	0.101
40.300	0.839	0.101
40.400	1.959	0.101
40.500	-18.233	0.101
40.600	2.611	0.101
40.700	-5.753	0.101
40.800	12.127	0.101
40.900	8.691	0.101
41.000	0.311	0.101
41.100	-7.995	0.101
41.200	-1.545	0.101
41.300	-4.575	0.101
41.400	-6.477	0.101
41.500	-9.928	0.101
41.600	-6.758	0.101
41.700	9.222	0.101
41.800	-6.702	0.101
41.900	0.686	0.101
42.000	0.316	0.101
42.100	10.511	0.101
42.200	-14.250	0.101
42.300	-0.778	0.101
42.400	-3.574	0.101
42.500	4.936	0.101
42.600	-11.812	0.101
42.700	1.583	0.101
42.800	3.772	0.101
42.900	-16.745	0.101
43.000	2.468	0.101
43.100	-7.675	0.101
43.200	-5.184	0.101
43.300	33.385	0.101
43.400	0.169	0.101
43.500	-3.813	0.101
43.600	-4.002	0.101
43.700	-8.152	0.101
43.800	5.427	0.101
43.900	11.531	0.101
44.000	-9.339	0.101
44.100	5.652	0.101
44.200	4.624	0.101
44.300	1.723	0.101
44.400	12.198	0.101
44.500	-14.338	0.101
44.600	-18.053	0.101
44.700	23.005	0.101
44.800	3.066	0.101
44.900	-16.300	0.101
45.000	-7.801	0.101
45.100	9.969	0.101
45.200	-3.834	0.101
45.300	4.187	0.101
45.400	2.236	0.101
45.500	-3.743	0.101
45.600	10.996	0.101
45.700	16.500	0.101
45.800	-1.286	0.101
45.900	7.056	0.101
46.000	1.562	0.101
46.100	11.534	0.101
46.200	4.204	0.101
46.300	-4.571	0.101
46.400	-15.685	0.101
46.500	-3.328	0.101
46.600	-3.867	0.101
46.700	-2.155	0.101
46.800	19.939	0.101
46.900	2.750	0.101
47.000	-5.254	0.101
47.100	-3.880	0.101
47.200	26.342	0.101
47.300	7.261	0.101
47.400	8.549	0.101
47.500	11.184	0.101
47.600	19.296	0.101
47.700	10.283	0.101
47.800	-1.592	0.101
47.900	-15.451	0.101
48.000	14.346	0.101
48.100	8.697	0.101
48.200	22.731	0.101
48.300	14.528	0.101
48.400	-0.493	0.101
48.500	28.327	0.101
48.600	17.810	0.101
48.700	-5.680	0.101
48.800	24.639	0.101
48.900	-8.260	0.101
49.000	9.840	0.101
49.100	29.433	0.101
49.200	17.704	0.101
49.300	4.911	0.101
49.400	8.118	0.101
49.500	-0.410	0.101
49.600	22.937	0.101
49.700	4.576	0.101
49.800	2.764	0.101
49.900	5.811	0.101
50.000	27.877	0.101
50.100	7.644	0.101
50.200	14.108	0.101
50.300	24.885	0.101
50.400	15.292	0.101
50.500	8.414	0.101
50.600	16.413	0.101
50.700	11.481	0.101
50.800	0.416	0.101
50.900	-0.338	0.101
51.000	15.766	0.101
51.100	12.305	0.101
51.200	15.066	0.101
51.300	8.629	0.101
51.400	17.364	0.101
51.500	3.937	0.101
51.600	12.526	0.101
51.700	13.172	0.101
51.800	12.380	0.101
51.900	3.788	0.101
52.000	3.797	0.101
52.100	6.526	0.101
52.200	6.758	0.101
52.300	10.115	0.101
52.400	7.832	0.101
52.500	16.461	0.101
52.600	18.558	0.101
52.700	28.794	0.101
52.800	12.155	0.101
52.900	20.527	0.101
53.000	2.504	0.101
53.100	10.395	0.101
53.200	19.842	0.101
53.300	25.912	0.101
53.400	17.501	0.101
53.500	12.108	0.101
53.600	18.680	0.101
53.700	14.911	0.101
53.800	18.181	0.101
53.900	23.104	0.101
54.000	1.396	0.101
54.100	8.758	0.101
54.200	-7.038	0.101
54.300	12.446	0.101
54.400	19.732	0.101
54.500	19.002	0.101
54.600	17.964	0.101
54.700	10.041	0.101
54.800	30.025	0.101
54.900	11.166	0.101
55.000	12.781	0.101
55.100	12.077	0.101
55.200	22.057	0.101
55.300	-2.431	0.101
55.400	-1.114	0.101
55.500	0.645	0.101
55.600	20.249	0.101
55.700	17.072	0.101
55.800	21.458	0.101
55.900	4.073	0.101
56.000	20.482	0.101
56.100	22.450	0.101
56.200	-2.536	0.101
56.300	19.431	0.101
56.400	6.987	0.101
56.500	17.947	0.101
56.600	8.542	0.101
56.700	21.982	0.101
56.800	14.819	0.101
56.900	7.842	0.101
57.000	14.060	0.101
57.100	18.070	0.101
57.200	17.070	0.101
57.300	-5.590	0.101
57.400	12.985	0.101
57.500	9.039	0.101
57.600	11.683	0.101
57.700	22.179	0.101
57.800	16.574	0.101
57.900	-24.679	0.101
58.000	45.214	0.101
58.100	12.411	0.101
58.200	15.855	0.101
58.300	7.814	0.101
58.400	-2.985	0.101
58.500	29.031	0.101
58.600	31.455	0.101
58.700	5.669	0.101
58.800	10.740	0.101
58.900	3.320	0.101
59.000	6.789	0.101
59.100	3.934	0.101
59.200	15.964	0.101
59.300	30.178	0.101
59.400	21.834	0.101
59.500	17.510	0.101
59.600	12.531	0.101
59.700	4.870	0.101
59.800	30.019	0.101
59.900	10.735	0.101
60.000	13.760	0.101
60.100	6.755	0.101
60.200	10.876	0.101
60.300	18.578	0.101
60.400	3.276	0.101
60.500	-4.709	0.101
60.600	27.651	0.101
60.700	14.755	0.101
60.800	2.824	0.101
60.900	-16.154	0.101
61.000	24.491	0.101
61.100	1.694	0.101
61.200	27.858	0.101
61.300	25.123	0.101
61.400	9.667	0.101
61.500	9.411	0.101
61.600	11.228	0.101
61.700	16.712	0.101
61.800	13.218	0.101
61.900	18.727	0.101
62.000	5.702	0.101
62.100	3.492	0.101
62.200	-4.422	0.101
62.300	18.629	0.101
62.400	10.795	0.101
62.500	24.420	0.101
62.600	9.779	0.101
62.700	12.638	0.101
62.800	18.604	0.101
62.900	16.418	0.101
63.000	21.479	0.101
63.100	18.512	0.101
63.200	10.333	0.101
63.300	15.980	0.101
63.400	24.392	0.101
63.500	8.654	0.101
63.600	6.934	0.101
63.700	-12.924	0.101
63.800	-6.968	0.101
63.900	17.554	0.101
64.000	-5.970	0.101
64.100	26.314	0.101
64.200	17.013	0.101
64.300	20.322	0.101
64.400	-6.179	0.101
64.500	12.192	0.101
64.600	19.443	0.101
64.700	0.817	0.101
64.800	11.041	0.101
64.900	7.069	0.101
65.000	9.063	0.101
65.100	-0.060	0.101
65.200	4.991	0.101
65.300	-1.703	0.101
65.400	11.630	0.101
65.500	-3.368	0.101
65.600	25.384	0.101
65.700	-5.263	0.101
65.800	20.292	0.101
65.900	6.840	0.101
66.000	29.848	0.101
66.100	-7.638	0.101
66.200	10.513	0.101
66.300	35.842	0.101
66.400	15.457	0.101
66.500	14.538	0.101
66.600	19.843	0.101
66.700	1.526	0.101
66.800	12.799	0.101
66.900	-0.856	0.101
67.000	16.116	0.101
67.100	5.916	0.101
67.200	-6.180	0.101
67.300	5.363	0.101
67.400	10.148	0.101
67.500	30.822	0.101
67.600	17.577	0.101
67.700	0.781	0.101
67.800	13.111	0.101
67.900	7.157	0.101
68.000	2.740	0.101
68.100	4.948	0.101
68.200	18.790	0.101
68.300	7.815	0.101
68.400	-0.120	0.101
68.500	8.527	0.101
68.600	15.634	0.101
68.700	15.353	0.101
68.800	18.941	0.101
68.900	0.189	0.101
69.000	22.060	0.101
69.100	3.884	0.101
69.200	7.161	0.101
69.300	17.952	0.101
69.400	12.819	0.101
69.500	16.322	0.101
69.600	3.169	0.101
69.700	-1.780	0.101
69.800	13.344	0.101
69.900	-4.106	0.101
70.000	8.315	0.101
70.100	-2.430	0.101
70.200	23.771	0.101
70.300	3.651	0.101
70.400	14.699	0.101
70.500	6.495	0.101
70.600	7.770	0.101
70.700	-4.169	0.101
70.800	6.275	0.100
70.900	4.026	0.100
71.000	1.623	0.100
71.100	14.182	0.100
71.200	19.803	0.100
71.300	20.448	0.100
71.400	11.595	0.100
71.500	15.396	0.100
71.600	3.830	0.100
71.700	-9.854	0.100
71.800	6.114	0.100
71.900	22.402	0.100
72.000	-1.852	0.100
72.100	-3.527	0.100
72.200	7.210	0.100
72.300	3.698	0.100
72.400	4.254	0.100
72.500	2.858	0.100
72.600	7.955	0.100
72.700	-1.701	0.100
72.800	2.837	0.100
72.900	18.351	0.100
73.000	0.194	0.100
73.100	25.093	0.100
73.200	7.870	0.100
73.300	-4.365	0.100
73.400	5.189	0.100
73.500	8.434	0.100
73.600	2.473	0.100
73.700	8.378	0.100
73.800	-3.615	0.100
73.900	27.281	0.100
74.000	5.798	0.100
74.100	3.565	0.100
74.200	17.921	0.100
74.300	-5.979	0.100
74.400	1.565	0.100
74.500	12.990	0.100
74.600	24.375	0.100
74.700	8.799	0.100
74.800	3.053	0.100
74.900	0.687	0.100
75.000	23.325	0.100
75.100	8.193	0.100
75.200	5.499	0.100
75.300	-8.845	0.100
75.400	10.585	0.100
75.500	1.474	0.100
75.600	16.637	0.100
75.700	6.578	0.100
75.800	-4.706	0.100
75.900	15.306	0.100
76.000	7.891	0.100
76.100	4.198	0.100
76.200	19.053	0.100
76.300	-1.186	0.100
76.400	3.923	0.100
76.500	7.022	0.100
76.600	-4.200	0.100
76.700	1.204	0.100
76.800	5.342	0.100
76.900	-13.562	0.100
77.000	11.737	0.100
77.100	16.700	0.100
77.200	0.495	0.100
77.300	9.629	0.100
77.400	2.741	0.100
77.500	13.934	0.100
77.600	2.119	0.100
77.700	2.547	0.100
77.800	-4.401	0.100
77.900	-0.015	0.100
78.000	11.184	0.100
78.100	-10.167	0.100
78.200	8.724	0.100
78.300	10.006	0.100
78.400	8.240	0.100
78.500	5.990	0.100
78.600	-10.077	0.100
78.700	1.169	0.100
78.800	16.097	0.100
78.900	8.420	0.100
79.000	-0.896	0.100
79.100	-7.868	0.100
79.200	6.704	0.100
79.300	6.747	0.100
79.400	5.876	0.100
79.500	-12.478	0.100
79.600	-10.734	0.100
79.700	4.830	0.100
79.800	-2.976	0.100
79.900	7.625	0.100
80.000	-2.284	0.100
80.100	9.868	0.100
80.200	1.644	0.100
80.300	8.627	0.100
80.400	16.646	0.100
80.500	-2.766	0.100
80.600	3.592	0.100
80.700	19.610	0.100
80.800	11.928	0.100
80.900	2.669	0.100
81.000	-6.912	0.100
81.100	4.043	0.100
81.200	4.757	0.100
81.300	3.764	0.100
81.400	6.278	0.100
81.500	2.433	0.100
81.600	3.297	0.100
81.700	10.119	0.100
81.800	5.510	0.100
81.900	1.557	0.100
82.000	6.687	0.100
82.100	11.590	0.100
82.200	-5.330	0.100
82.300	-12.549	0.100
82.400	18.627	0.100
82.500	-5.810	0.100
82.600	8.177	0.100
82.700	-2.052	0.100
82.800	11.866	0.100
82.900	-3.673	0.100
83.000	-20.789	0.100
83.100	-0.613	0.100
83.200	2.139	0.100
83.300	-9.098	0.100
83.400	-1.174	0.100
83.500	6.644	0.100
83.600	8.163	0.100
83.700	2.778	0.100
83.800	19.313	0.100
83.900	10.278	0.100
84.000	2.487	0.100
84.100	11.166	0.100
84.200	17.479	0.100
84.300	-9.369	0.100
84.400	10.454	0.100
84.500	7.966	0.100
84.600	2.070	0.100
84.700	-0.574	0.100
84.800	-2.624	0.100
84.900	-15.124	0.100
85.000	11.640	0.100
85.100	7.241	0.100
85.200	6.968	0.100
85.300	-4.265	0.100
85.400	-10.576	0.100
85.500	-9.891	0.100
85.600	0.490	0.100
85.700	1.494	0.100
85.800	5.594	0.100
85.900	13.748	0.100
86.000	4.301	0.100
86.100	4.249	0.100
86.200	-1.649	0.100
86.300	-12.232	0.100
86.400	6.053	0.100
86.500	1.524	0.100
86.600	-8.410	0.100
86.700	21.399	0.100
86.800	7.002	0.100
86.900	7.059	0.100
87.000	10.675	0.100
87.100	-13.819	0.100
87.200	-17.569	0.100
87.300	4.744	0.100
87.400	0.958	0.100
87.500	3.343	0.100
87.600	0.842	0.100
87.700	-7.016	0.100
87.800	8.797	0.100
87.900	15.457	0.100
88.000	-13.871	0.100
88.100	-18.549	0.100
88.200	1.541	0.100
88.300	17.748	0.100
88.400	-15.314	0.100
88.500	-2.988	0.100
88.600	-11.909	0.100
88.700	5.074	0.100
88.800	10.350	0.100
88.900	-5.466	0.100
89.000	7.004	0.100
89.100	-1.176	0.100
89.200	9.161	0.100
89.300	-8.515	0.100
89.400	10.915	0.100
89.500	10.904	0.100
89.600	5.430	0.100
89.700	-5.487	0.100
89.800	-6.358	0.100
89.900	-5.457	0.100
90.000	2.890	0.100
90.100	1.238	0.100
90.200	10.576	0.100
90.300	-9.100	0.100
90.400	-0.017	0.100
90.500	-22.998	0.100
90.600	8.729	0.100
90.700	-12.154	0.100
90.800	5.460	0.100
90.900	-7.250	0.100
91.000	-6.611	0.100
91.100	-2.035	0.100
91.200	-23.428	0.100
91.300	10.314	0.100
91.400	-9.692	0.100
91.500	-4.697	0.100
91.600	-15.149	0.100
91.700	-17.741	0.100
91.800	-12.169	0.100
91.900	-8.928	0.100
92.000	-16.980	0.100
92.100	7.013	0.100
92.200	-14.936	0.100
92.300	-18.127	0.100
92.400	-11.695	0.100
92.500	-7.683	0.100
92.600	-32.680	0.100
92.700	-6.879	0.100
92.800	-28.704	0.100
92.900	-12.527	0.100
93.000	-14.665	0.100
93.100	-19.395	0.100
93.200	-0.414	0.100
93.300	-25.605	0.100
93.400	-34.153	0.100
93.500	-15.742	0.100
93.600	-13.526	0.100
93.700	-24.497	0.100
93.800	-15.977	0.100
93.900	0.099	0.100
94.000	-19.327	0.100
94.100	-20.894	0.100
94.200	-13.117	0.100
94.300	-30.190	0.100
94.400	-19.793	0.100
94.500	-31.444	0.100
94.600	-15.950	0.100
94.700	-13.831	0.100
94.800	-21.423	0.100
94.900	-10.347	0.100
