time /s	I /nA	E /V
0.100	-10.497	0.100
0.200	-14.270	0.100
0.300	-4.975	0.100
0.400	12.384	0.100
0.500	-10.640	0.100
0.600	-0.064	0.100
0.700	21.592	0.100
0.800	0.861	0.100
0.900	-7.388	0.100
1.000	6.608	0.100
1.100	-5.360	0.100
1.200	6.980	0.100
1.300	3.689	0.100
1.400	-5.092	0.100
1.500	-9.619	0.100
1.600	14.019	0.100
1.700	-3.202	0.100
1.800	15.673	0.100
1.900	-9.698	0.100
2.000	-9.660	0.100
2.100	20.128	0.100
2.200	-7.666	0.100
2.300	5.673	0.100
2.400	10.932	0.100
2.500	-8.697	0.100
2.600	-2.493	0.100
2.700	11.308	0.100
2.800	1.984	0.100
2.900	-12.944	0.100
3.000	13.055	0.100
3.100	4.356	0.100
3.200	3.267	0.100
3.300	3.235	0.100
3.400	-22.181	0.100
3.500	-4.761	0.100
3.600	-11.027	0.100
3.700	6.378	0.100
3.800	23.022	0.100
3.900	0.162	0.100
4.000	-2.129	0.100
4.100	-1.646	0.100
4.200	-8.400	0.100
4.300	10.317	0.100
4.400	-3.381	0.100
4.500	-5.515	0.100
4.600	-0.295	0.100
4.700	-25.580	0.100
4.800	9.752	0.100
4.900	-4.607	0.100
5.000	12.224	0.100
5.100	4.589	0.100
5.200	0.766	0.100
5.300	9.486	0.100
5.400	12.324	0.100
5.500	-26.176	0.100
5.600	1.854	0.100
5.700	-11.803	0.100
5.800	-16.560	0.100
5.900	-12.870	0.100
6.000	14.288	0.100
6.100	12.154	0.100
6.200	-2.237	0.100
6.300	-6.340	0.100
6.400	9.192	0.100
6.500	-4.284	0.100
6.600	9.338	0.100
6.700	9.540	0.100
6.800	10.314	0.100
6.900	-27.695	0.100
7.000	0.865	0.100
7.100	5.936	0.100
7.200	4.553	0.100
7.300	4.492	0.100
7.400	-15.398	0.100
7.500	7.422	0.100
7.600	2.265	0.100
7.700	-3.133	0.100
7.800	-12.948	0.100
7.900	5.236	0.100
8.000	0.677	0.100
8.100	15.063	0.100
8.200	1.429	0.100
8.300	-19.124	0.100
8.400	-13.104	0.100
8.500	-8.901	0.100
8.600	-20.063	0.100
8.700	5.780	0.100
8.800	3.709	0.100
8.900	2.202	0.100
9.000	-7.778	0.100
9.100	-9.421	0.100
9.200	4.425	0.100
9.300	4.704	0.100
9.400	18.860	0.100
9.500	3.001	0.100
9.600	15.152	0.100
9.700	-11.967	0.100
9.800	-16.440	0.100
9.900	2.996	0.100
10.000	1.662	0.100
10.100	-10.862	0.100
10.200	-13.606	0.100
10.300	-19.232	0.100
10.400	15.344	0.100
10.500	-30.649	0.100
10.600	-6.827	0.100
10.700	10.058	0.100
10.800	19.589	0.100
10.900	-10.147	0.100
11.000	13.673	0.100
11.100	-13.046	0.100
11.200	8.197	0.100
11.300	-1.782	0.100
11.400	-15.871	0.100
11.500	-13.664	0.100
11.600	-3.189	0.100
11.700	7.187	0.100
11.800	5.524	0.100
11.900	4.051	0.100
12.000	-14.430	0.100
12.100	19.112	0.100
12.200	1.538	0.100
12.300	-13.390	0.100
12.400	-2.736	0.100
12.500	-2.049	0.100
12.600	-13.459	0.100
12.700	-5.518	0.100
12.800	-12.778	0.100
12.900	-8.306	0.100
13.000	10.029	0.100
13.100	0.830	0.100
13.200	-7.899	0.100
13.300	-21.554	0.100
13.400	9.266	0.100
13.500	11.976	0.100
13.600	-19.621	0.100
13.700	18.566	0.100
13.800	14.205	0.100
13.900	8.994	0.100
14.000	4.003	0.100
14.100	-2.582	0.100
14.200	9.836	0.100
14.300	5.651	0.100
14.400	-3.977	0.100
14.500	-3.335	0.100
14.600	-7.989	0.100
14.700	4.212	0.100
14.800	-7.750	0.100
14.900	23.220	0.100
15.000	4.645	0.100
15.100	-17.890	0.100
15.200	-2.372	0.100
15.300	-1.955	0.100
15.400	-13.137	0.100
15.500	2.938	0.100
15.600	1.690	0.100
15.700	0.241	0.100
15.800	-25.121	0.100
15.900	-0.666	0.100
16.000	0.240	0.100
16.100	-11.832	0.100
16.200	4.137	0.100
16.300	-1.859	0.100
16.400	-5.064	0.100
16.500	-2.653	0.100
16.600	-6.720	0.100
16.700	-12.534	0.100
16.800	-5.072	0.100
16.900	-8.391	0.100
17.000	-7.661	0.100
17.100	7.714	0.100
17.200	-4.161	0.100
17.300	6.310	0.100
17.400	0.209	0.100
17.500	1.284	0.100
17.600	-6.816	0.100
17.700	-4.538	0.100
17.800	-10.143	0.100
17.900	-3.117	0.100
18.000	-4.241	0.100
18.100	4.926	0.100
18.200	-14.150	0.100
18.300	-6.737	0.100
18.400	3.099	0.100
18.500	3.244	0.100
18.600	-18.689	0.100
18.700	0.021	0.100
18.800	3.255	0.100
18.900	-6.453	0.100
19.000	7.943	0.100
19.100	-0.484	0.100
19.200	9.537	0.100
19.300	-5.403	0.100
19.400	-8.073	0.100
19.500	-7.902	0.100
19.600	7.708	0.100
19.700	-2.829	0.100
19.800	0.536	0.100
19.900	-7.804	0.100
20.000	-9.432	0.100
20.100	12.520	0.100
20.200	-8.935	0.100
20.300	-2.501	0.100
20.400	-8.846	0.100
20.500	-0.323	0.100
20.600	-5.406	0.100
20.700	11.909	0.100
20.800	-5.139	0.100
20.900	-8.184	0.100
21.000	1.397	0.100
21.100	-20.847	0.100
21.200	-17.694	0.100
21.300	-11.659	0.100
21.400	5.978	0.100
21.500	-7.124	0.100
21.600	4.690	0.100
21.700	3.057	0.100
21.800	-3.767	0.100
21.900	0.923	0.100
22.000	1.538	0.100
22.100	-22.344	0.100
22.200	20.029	0.100
22.300	-9.130	0.100
22.400	-2.694	0.100
22.500	-1.580	0.100
22.600	-0.412	0.100
22.700	-3.514	0.100
22.800	-15.241	0.100
22.900	1.052	0.100
23.000	-4.036	0.100
23.100	-1.755	0.100
23.200	5.230	0.100
23.300	-11.024	0.100
23.400	-12.136	0.100
23.500	-6.366	0.100
23.600	1.422	0.100
23.700	-6.852	0.100
23.800	0.502	0.100
23.900	-5.769	0.100
24.000	-1.692	0.100
24.100	-8.461	0.100
24.200	2.018	0.100
24.300	-22.888	0.100
24.400	9.152	0.100
24.500	11.075	0.100
24.600	-5.613	0.100
24.700	-7.640	0.100
24.800	-16.638	0.100
24.900	-0.544	0.100
25.000	0.113	0.100
25.100	7.009	0.100
25.200	-19.849	0.100
25.300	0.070	0.100
25.400	7.958	0.100
25.500	-5.743	0.100
25.600	-15.815	0.100
25.700	-11.599	0.100
25.800	-15.494	0.100
25.900	9.053	0.100
26.000	0.247	0.100
26.100	-6.243	0.100
26.200	-5.630	0.100
26.300	-9.510	0.100
26.400	13.901	0.100
26.500	1.745	0.100
26.600	-0.013	0.100
26.700	4.618	0.100
26.800	-0.197	0.100
26.900	-12.996	0.100
27.000	-7.155	0.100
27.100	-20.585	0.100
27.200	7.491	0.100
27.300	7.503	0.100
27.400	-20.115	0.100
27.500	8.410	0.100
27.600	5.023	0.100
27.700	5.331	0.100
27.800	-10.341	0.100
27.900	1.363	0.100
28.000	-15.911	0.100
28.100	-14.064	0.100
28.200	9.992	0.100
28.300	-0.016	0.100
28.400	-4.374	0.100
28.500	-8.719	0.100
28.600	5.277	0.100
28.700	7.458	0.100
28.800	-14.955	0.100
28.900	-2.037	0.100
29.000	-4.177	0.100
29.100	-18.419	0.100
29.200	-17.368	0.100
29.300	8.636	0.100
29.400	-13.538	0.100
29.500	4.190	0.100
29.600	-27.726	0.100
29.700	-7.039	0.100
29.800	5.933	0.100
29.900	3.638	0.100
30.000	4.297	0.100
30.100	-7.449	0.100
30.200	-21.467	0.100
30.300	8.406	0.100
30.400	3.727	0.100
30.500	-2.015	0.100
30.600	6.388	0.100
30.700	4.063	0.100
30.800	22.356	0.100
30.900	6.816	0.100
31.000	12.497	0.100
31.100	16.043	0.100
31.200	2.108	0.100
31.300	-6.396	0.100
31.400	-9.599	0.100
31.500	-3.347	0.100
31.600	-1.169	0.100
31.700	19.693	0.100
31.800	13.791	0.100
31.900	3.908	0.100
32.000	3.640	0.100
32.100	13.245	0.100
32.200	11.516	0.100
32.300	1.888	0.100
32.400	4.767	0.100
32.500	6.989	0.100
32.600	2.510	0.100
32.700	1.825	0.100
32.800	17.919	0.100
32.900	3.059	0.100
33.000	21.083	0.100
33.100	21.821	0.100
33.200	-7.449	0.100
33.300	13.035	0.100
33.400	18.807	0.100
33.500	17.912	0.100
33.600	-5.473	0.100
33.700	5.827	0.100
33.800	16.736	0.100
33.900	1.474	0.100
34.000	20.459	0.100
34.100	10.728	0.100
34.200	17.137	0.100
34.300	18.643	0.100
34.400	19.981	0.100
34.500	18.263	0.100
34.600	16.221	0.100
34.700	5.829	0.100
34.800	7.851	0.100
34.900	21.865	0.100
35.000	8.055	0.100
35.100	9.765	0.100
35.200	6.166	0.100
35.300	-8.012	0.100
35.400	35.335	0.100
35.500	13.846	0.100
35.600	19.204	0.100
35.700	31.293	0.100
35.800	22.975	0.100
35.900	9.405	0.100
36.000	5.090	0.100
36.100	11.012	0.100
36.200	27.814	0.100
36.300	27.077	0.100
36.400	17.354	0.100
36.500	23.579	0.100
36.600	16.682	0.100
36.700	27.745	0.100
36.800	9.992	0.100
36.900	11.741	0.100
37.000	24.776	0.100
37.100	20.065	0.100
37.200	13.924	0.100
37.300	13.026	0.100
37.400	19.697	0.100
37.500	19.911	0.100
37.600	31.961	0.100
37.700	1.276	0.100
37.800	13.195	0.100
37.900	32.632	0.100
38.000	25.293	0.100
38.100	17.887	0.100
38.200	28.225	0.100
38.300	33.695	0.100
38.400	34.302	0.100
38.500	22.129	0.100
38.600	23.018	0.100
38.700	20.484	0.100
38.800	32.002	0.100
38.900	22.369	0.100
39.000	38.114	0.100
39.100	32.436	0.100
39.200	23.021	0.100
39.300	7.825	0.100
39.400	21.141	0.100
39.500	25.582	0.100
39.600	28.682	0.100
39.700	29.019	0.100
39.800	34.734	0.100
39.900	30.339	0.100
40.000	41.254	0.100
40.100	42.190	0.100
40.200	21.995	0.100
40.300	21.327	0.100
40.400	14.715	0.100
40.500	31.572	0.100
40.600	25.676	0.100
40.700	12.675	0.100
40.800	34.840	0.100
40.900	28.483	0.100
41.000	43.867	0.100
41.100	24.270	0.100
41.200	39.895	0.100
41.300	28.656	0.100
41.400	22.927	0.100
41.500	28.492	0.100
41.600	15.617	0.100
41.700	38.614	0.100
41.800	39.715	0.100
41.900	20.154	0.100
42.000	44.116	0.100
42.100	29.415	0.100
42.200	25.311	0.100
42.300	41.048	0.100
42.400	27.732	0.100
42.500	34.237	0.100
42.600	16.434	0.100
42.700	48.117	0.100
42.800	36.169	0.100
42.900	40.309	0.100
43.000	43.723	0.100
43.100	38.873	0.100
43.200	27.646	0.100
43.300	16.559	0.100
43.400	23.504	0.100
43.500	45.486	0.100
43.600	30.330	0.100
43.700	4.201	0.100
43.800	21.304	0.100
43.900	56.657	0.100
44.000	45.946	0.100
44.100	21.063	0.100
44.200	6.065	0.100
44.300	52.090	0.100
44.400	46.314	0.100
44.500	38.110	0.100
44.600	26.252	0.100
44.700	38.911	0.100
44.800	16.533	0.100
44.900	28.411	0.100
45.000	39.610	0.100
45.100	31.674	0.100
45.200	32.625	0.100
45.300	29.732	0.100
45.400	47.686	0.100
45.500	33.129	0.100
45.600	24.514	0.100
45.700	29.809	0.100
45.800	31.038	0.100
45.900	45.448	0.100
46.000	48.068	0.100
46.100	22.106	0.100
46.200	17.495	0.100
46.300	39.748	0.100
46.400	32.697	0.100
46.500	46.193	0.100
46.600	40.294	0.100
46.700	25.072	0.100
46.800	17.712	0.100
46.900	33.846	0.100
47.000	21.531	0.100
47.100	41.042	0.100
47.200	38.554	0.100
47.300	39.788	0.100
47.400	54.529	0.100
47.500	35.126	0.100
47.600	22.768	0.100
47.700	34.461	0.100
47.800	45.488	0.100
47.900	35.980	0.100
48.000	47.384	0.100
48.100	48.317	0.100
48.200	34.222	0.100
48.300	35.401	0.100
48.400	35.875	0.100
48.500	34.141	0.100
48.600	39.276	0.100
48.700	27.963	0.100
48.800	39.370	0.100
48.900	32.344	0.100
49.000	23.732	0.100
49.100	40.101	0.100
49.200	38.229	0.100
49.300	32.330	0.100
49.400	30.476	0.100
49.500	42.457	0.100
49.600	32.245	0.100
49.700	35.237	0.100
49.800	36.636	0.100
49.900	26.655	0.100
50.000	49.636	0.100
50.100	50.111	0.100
50.200	14.817	0.100
50.300	48.137	0.100
50.400	27.377	0.100
50.500	31.927	0.100
50.600	34.966	0.100
50.700	27.900	0.100
50.800	63.720	0.100
50.900	49.863	0.100
51.000	42.063	0.100
51.100	47.752	0.100
51.200	34.147	0.100
51.300	8.613	0.100
51.400	30.377	0.100
51.500	67.725	0.100
51.600	29.251	0.100
51.700	29.629	0.100
51.800	32.665	0.100
51.900	39.322	0.100
52.000	45.624	0.100
52.100	47.100	0.100
52.200	38.821	0.100
52.300	40.736	0.100
52.400	36.978	0.100
52.500	39.226	0.100
52.600	24.745	0.100
52.700	36.627	0.100
52.800	36.710	0.100
52.900	59.742	0.100
53.000	28.832	0.100
53.100	40.178	0.100
53.200	40.668	0.100
53.300	37.507	0.100
53.400	33.046	0.100
53.500	30.935	0.100
53.600	38.721	0.100
53.700	47.807	0.100
53.800	47.030	0.100
53.900	16.173	0.100
54.000	60.385	0.100
54.100	56.332	0.100
54.200	25.524	0.100
54.300	40.406	0.100
54.400	40.178	0.100
54.500	41.108	0.100
54.600	24.942	0.100
54.700	42.948	0.100
54.800	38.051	0.100
54.900	25.221	0.100
55.000	36.138	0.100
55.100	47.421	0.100
55.200	17.795	0.100
55.300	42.892	0.100
55.400	54.550	0.100
55.500	22.308	0.100
55.600	37.035	0.100
55.700	25.245	0.100
55.800	33.074	0.100
55.900	49.139	0.100
56.000	37.956	0.100
56.100	47.258	0.100
56.200	39.814	0.100
56.300	50.614	0.100
56.400	28.679	0.100
56.500	48.425	0.100
56.600	34.869	0.100
56.700	40.624	0.100
56.800	34.510	0.100
56.900	40.398	0.100
57.000	38.114	0.100
57.100	37.395	0.100
57.200	52.692	0.100
57.300	49.930	0.100
57.400	43.443	0.100
57.500	29.740	0.100
57.600	41.105	0.100
57.700	28.992	0.100
57.800	36.586	0.099
57.900	42.688	0.100
58.000	34.423	0.100
58.100	35.271	0.100
58.200	37.532	0.100
58.300	40.309	0.100
58.400	54.383	0.100
58.500	27.647	0.100
58.600	40.279	0.100
58.700	35.893	0.100
58.800	45.288	0.100
58.900	33.774	0.099
59.000	33.301	0.100
59.100	56.634	0.100
59.200	43.827	0.100
59.300	19.057	0.100
59.400	49.751	0.100
59.500	39.544	0.100
59.600	29.752	0.100
59.700	38.878	0.100
59.800	39.055	0.100
59.900	43.748	0.100
60.000	43.647	0.100
60.100	60.120	0.100
60.200	30.307	0.100
60.300	48.104	0.100
60.400	35.625	0.100
60.500	46.778	0.100
60.600	11.642	0.100
60.700	28.734	0.100
60.800	48.153	0.100
60.900	39.135	0.099
61.000	49.972	0.100
61.100	48.282	0.100
61.200	45.268	0.100
61.300	34.694	0.100
61.400	39.399	0.100
61.500	55.915	0.100
61.600	47.710	0.100
61.700	29.143	0.100
61.800	54.448	0.100
61.900	27.552	0.100
62.000	37.653	0.100
62.100	45.396	0.100
62.200	17.042	0.100
62.300	39.892	0.100
62.400	54.924	0.100
62.500	40.783	0.099
62.600	38.740	0.100
62.700	56.643	0.100
62.800	42.132	0.099
62.900	56.234	0.100
63.000	32.862	0.100
63.100	27.650	0.099
63.200	29.540	0.100
63.300	42.210	0.099
63.400	39.609	0.100
63.500	24.440	0.099
63.600	40.188	0.099
63.700	44.980	0.100
63.800	40.939	0.100
63.900	37.760	0.099
64.000	50.813	0.099
64.100	32.343	0.099
64.200	44.844	0.100
64.300	29.830	0.100
64.400	21.332	0.099
64.500	48.445	0.099
64.600	50.753	0.099
64.700	42.647	0.099
64.800	40.696	0.100
64.900	30.318	0.099
65.000	26.766	0.099
65.100	33.863	0.099
65.200	67.438	0.099
65.300	43.392	0.099
65.400	31.618	0.099
65.500	39.032	0.099
65.600	53.254	0.099
65.700	48.679	0.099
65.800	51.997	0.099
65.900	47.341	0.099
66.000	48.273	0.099
66.100	32.232	0.099
66.200	43.269	0.099
66.300	46.988	0.099
66.400	36.212	0.099
66.500	36.466	0.099
66.600	35.096	0.099
66.700	44.927	0.099
66.800	43.035	0.099
66.900	25.653	0.099
67.000	51.336	0.099
67.100	29.208	0.099
67.200	42.728	0.099
67.300	37.936	0.099
67.400	71.505	0.099
67.500	47.039	0.099
67.600	45.376	0.099
67.700	38.980	0.099
67.800	36.744	0.099
67.900	28.887	0.099
68.000	45.249	0.099
68.100	53.882	0.099
68.200	49.190	0.099
68.300	39.865	0.099
68.400	36.068	0.099
68.500	47.723	0.099
68.600	48.512	0.099
68.700	44.851	0.099
68.800	42.905	0.099
68.900	46.161	0.099
69.000	28.474	0.099
69.100	50.684	0.099
69.200	25.276	0.099
69.300	49.087	0.099
69.400	22.425	0.099
69.500	70.849	0.099
69.600	40.800	0.099
69.700	50.701	0.099
69.800	48.992	0.099
69.900	48.435	0.099
70.000	41.530	0.099
70.100	45.337	0.099
70.200	44.382	0.099
70.300	26.042	0.099
70.400	38.770	0.099
70.500	39.054	0.099
70.600	57.278	0.099
70.700	45.348	0.099
70.800	41.087	0.099
70.900	57.403	0.099
71.000	51.426	0.099
71.100	51.040	0.099
71.200	43.924	0.099
71.300	49.801	0.099
71.400	50.579	0.099
71.500	33.215	0.099
71.600	39.413	0.099
71.700	42.908	0.099
71.800	35.861	0.099
71.900	58.239	0.099
72.000	55.902	0.099
72.100	45.877	0.099
72.200	51.691	0.099
72.300	46.529	0.099
72.400	47.963	0.099
72.500	55.234	0.099
72.600	46.004	0.099
72.700	42.856	0.099
72.800	45.414	0.099
72.900	30.285	0.099
73.000	42.624	0.099
73.100	47.752	0.099
73.200	40.214	0.099
73.300	67.562	0.099
73.400	39.311	0.099
73.500	53.407	0.099
73.600	46.378	0.099
73.700	59.750	0.099
73.800	36.831	0.099
73.900	48.328	0.099
74.000	35.927	0.099
74.100	43.538	0.099
74.200	35.292	0.099
74.300	53.753	0.099
74.400	60.576	0.099
74.500	37.033	0.099
74.600	61.651	0.099
74.700	53.506	0.099
74.800	52.643	0.099
74.900	51.595	0.099
75.000	25.020	0.099
75.100	43.092	0.099
75.200	58.268	0.099
75.300	68.220	0.099
75.400	35.202	0.099
75.500	56.496	0.099
75.600	26.692	0.099
75.700	38.948	0.099
75.800	53.272	0.099
75.900	50.603	0.099
76.000	61.654	0.099
76.100	52.919	0.099
76.200	43.017	0.099
76.300	49.279	0.099
76.400	59.861	0.099
76.500	34.602	0.099
76.600	28.863	0.099
76.700	55.466	0.099
76.800	59.825	0.099
76.900	40.205	0.099
77.000	33.666	0.099
77.100	71.446	0.099
77.200	54.250	0.099
77.300	35.801	0.099
77.400	49.663	0.099
77.500	48.035	0.099
77.600	57.008	0.099
77.700	60.976	0.099
77.800	41.106	0.099
77.900	51.656	0.099
78.000	31.806	0.099
78.100	49.196	0.099
78.200	45.497	0.099
78.300	48.057	0.099
78.400	45.586	0.099
78.500	41.793	0.099
78.600	55.723	0.099
78.700	40.317	0.099
78.800	73.488	0.099
78.900	38.024	0.099
79.000	33.515	0.099
79.100	58.662	0.099
79.200	45.912	0.099
79.300	68.523	0.099
79.400	64.053	0.099
79.500	37.303	0.099
79.600	51.147	0.099
79.700	52.743	0.099
79.800	55.321	0.099
79.900	32.194	0.099
80.000	37.958	0.099
80.100	60.389	0.099
80.200	54.192	0.099
80.300	21.246	0.099
80.400	48.138	0.099
80.500	61.550	0.099
80.600	52.666	0.099
80.700	54.900	0.099
80.800	31.576	0.099
80.900	38.905	0.099
81.000	58.476	0.099
81.100	42.492	0.099
81.200	56.128	0.099
81.300	57.734	0.099
81.400	40.556	0.099
81.500	47.129	0.099
81.600	33.520	0.099
81.700	37.518	0.099
81.800	47.657	0.099
81.900	60.920	0.099
82.000	40.135	0.099
82.100	47.453	0.099
82.200	53.881	0.099
82.300	71.128	0.099
82.400	55.429	0.099
82.500	46.426	0.099
82.600	57.350	0.099
82.700	59.894	0.099
82.800	53.698	0.099
82.900	58.970	0.099
83.000	57.046	0.099
83.100	62.230	0.099
83.200	69.796	0.099
83.300	43.927	0.099
83.400	44.960	0.099
83.500	44.321	0.099
83.600	37.187	0.099
83.700	61.843	0.099
83.800	40.516	0.099
83.900	40.023	0.099
84.000	52.272	0.099
84.100	54.995	0.099
84.200	35.858	0.099
84.300	55.168	0.099
84.400	40.985	0.099
84.500	66.120	0.099
84.600	62.456	0.099
84.700	51.152	0.099
84.800	45.066	0.099
84.900	59.715	0.099
85.000	49.435	0.099
85.100	63.247	0.099
85.200	34.982	0.099
85.300	51.146	0.099
85.400	51.598	0.099
85.500	57.248	0.099
85.600	27.295	0.099
85.700	55.878	0.099
85.800	63.014	0.099
85.900	41.106	0.099
86.000	49.424	0.099
86.100	46.697	0.099
86.200	52.637	0.099
86.300	44.042	0.099
86.400	57.190	0.099
86.500	34.239	0.099
86.600	50.897	0.099
86.700	76.097	0.099
86.800	69.224	0.099
86.900	39.837	0.099
87.000	49.346	0.099
87.100	48.345	0.099
87.200	40.058	0.099
87.300	55.804	0.099
87.400	49.440	0.099
87.500	52.912	0.099
87.600	47.119	0.099
87.700	49.377	0.099
87.800	65.166	0.099
87.900	56.419	0.099
88.000	55.496	0.099
88.100	45.911	0.099
88.200	46.102	0.099
88.300	57.342	0.099
88.400	43.785	0.099
88.500	50.635	0.099
88.600	24.919	0.099
88.700	66.011	0.099
88.800	60.408	0.099
88.900	47.152	0.099
89.000	46.831	0.099
89.100	55.208	0.099
89.200	43.041	0.099
89.300	61.953	0.099
89.400	48.222	0.099
89.500	45.509	0.099
89.600	57.708	0.099
89.700	37.259	0.099
89.800	42.276	0.099
89.900	41.873	0.099
90.000	43.398	0.099
90.100	63.998	0.099
90.200	54.327	0.099
90.300	60.607	0.099
90.400	38.468	0.099
90.500	34.072	0.099
90.600	44.776	0.099
90.700	56.939	0.099
90.800	48.489	0.099
90.900	32.691	0.099
91.000	37.627	0.099
91.100	44.645	0.099
91.200	51.061	0.099
91.300	43.676	0.099
91.400	54.964	0.099
91.500	49.294	0.099
91.600	21.198	0.099
91.700	38.499	0.099
91.800	43.953	0.099
91.900	42.649	0.099
92.000	39.193	0.099
92.100	36.413	0.099
92.200	24.551	0.099
92.300	27.863	0.099
92.400	22.716	0.099
92.500	40.424	0.099
92.600	46.530	0.099
92.700	26.399	0.099
92.800	18.588	0.099
92.900	28.204	0.099
93.000	43.124	0.099
93.100	25.708	0.099
93.200	34.234	0.099
93.300	27.845	0.099
93.400	34.752	0.099
93.500	29.905	0.099
93.600	28.447	0.099
93.700	15.335	0.099
93.800	2.377	0.099
93.900	39.006	0.099
94.000	49.616	0.099
94.100	38.536	0.099
94.200	8.979	0.099
94.300	34.624	0.099
94.400	27.180	0.099
94.500	26.586	0.099
94.600	16.196	0.099
94.700	22.570	0.099
94.800	28.539	0.099
94.900	13.589	0.099
95.000	13.619	0.099
95.100	2.947	0.099
95.200	5.548	0.099
95.300	30.236	0.099
95.400	17.617	0.099
95.500	40.464	0.099
95.600	26.189	0.099
95.700	11.588	0.099
95.800	19.457	0.099
95.900	10.126	0.099
