time /s	I /nA	E /V
0.100	-8.929	0.100
0.200	-11.038	0.100
0.300	-0.769	0.100
0.400	-9.081	0.100
0.500	-11.762	0.100
0.600	-7.704	0.100
0.700	-11.162	0.100
0.800	-0.389	0.100
0.900	-5.607	0.100
1.000	6.260	0.100
1.100	-17.662	0.100
1.200	-1.039	0.100
1.300	-10.109	0.100
1.400	-27.868	0.100
1.500	-2.447	0.100
1.600	-11.664	0.100
1.700	-17.366	0.100
1.800	-14.006	0.100
1.900	-5.664	0.100
2.000	-25.276	0.100
2.100	-14.460	0.100
2.200	-7.440	0.100
2.300	-11.547	0.100
2.400	-19.944	0.100
2.500	-1.374	0.100
2.600	-16.612	0.100
2.700	-1.456	0.100
2.800	-4.627	0.100
2.900	-8.438	0.100
3.000	-16.135	0.100
3.100	-10.785	0.100
3.200	-2.237	0.100
3.300	-4.975	0.100
3.400	-7.419	0.100
3.500	-11.519	0.100
3.600	-12.125	0.100
3.700	-11.455	0.100
3.800	-11.007	0.100
3.900	-13.845	0.100
4.000	-15.022	0.100
4.100	-10.859	0.100
4.200	-7.827	0.100
4.300	-7.075	0.100
4.400	-5.394	0.100
4.500	-3.928	0.100
4.600	-9.519	0.100
4.700	-13.013	0.100
4.800	-19.635	0.100
4.900	-14.870	0.100
5.000	-9.501	0.100
5.100	-10.356	0.100
5.200	-10.109	0.100
5.300	-7.817	0.100
5.400	-5.470	0.100
5.500	-8.397	0.100
5.600	-14.427	0.100
5.700	-14.896	0.100
5.800	-18.431	0.100
5.900	-14.247	0.100
6.000	-9.606	0.100
6.100	-10.491	0.100
6.200	-17.460	0.100
6.300	-15.077	0.100
6.400	-2.912	0.100
6.500	-4.033	0.100
6.600	-0.870	0.100
6.700	-1.368	0.100
6.800	-9.996	0.100
6.900	-12.862	0.100
7.000	-7.397	0.100
7.100	-30.991	0.100
7.200	-22.080	0.100
7.300	-21.761	0.100
7.400	-1.500	0.100
7.500	5.760	0.100
7.600	-7.531	0.100
7.700	-11.771	0.100
7.800	-17.987	0.100
7.900	-8.558	0.100
8.000	-2.769	0.100
8.100	-4.900	0.100
8.200	-20.007	0.100
8.300	-22.454	0.100
8.400	-3.936	0.100
8.500	-11.846	0.100
8.600	-15.617	0.100
8.700	-12.284	0.100
8.800	-7.374	0.100
8.900	-3.458	0.100
9.000	-9.723	0.100
9.100	-21.198	0.100
9.200	-21.185	0.100
9.300	-16.917	0.100
9.400	-17.774	0.100
9.500	-9.047	0.100
9.600	-3.304	0.100
9.700	-4.888	0.100
9.800	-6.596	0.100
9.900	-0.925	0.100
10.000	-3.429	0.100
10.100	-14.156	0.100
10.200	-19.417	0.100
10.300	-16.944	0.100
10.400	-14.706	0.100
10.500	-9.721	0.100
10.600	-14.079	0.100
10.700	-8.132	0.099
10.800	-8.909	0.100
10.900	-20.159	0.099
11.000	-23.466	0.099
11.100	-24.871	0.099
11.200	-21.050	0.099
11.300	-16.546	0.099
11.400	-13.049	0.099
11.500	-13.928	0.099
11.600	-16.722	0.099
11.700	-10.569	0.099
11.800	-10.745	0.099
11.900	-17.329	0.099
12.000	-17.176	0.099
12.100	-8.411	0.099
12.200	-1.644	0.099
12.300	-9.211	0.099
12.400	-21.116	0.099
12.500	-23.466	0.099
12.600	-15.470	0.099
12.700	-11.898	0.099
12.800	-10.230	0.099
12.900	-19.710	0.099
13.000	-24.606	0.099
13.100	-20.139	0.099
13.200	-14.499	0.099
13.300	-12.691	0.099
13.400	-16.828	0.099
13.500	-20.502	0.099
13.600	-17.654	0.099
13.700	-11.751	0.099
13.800	-17.959	0.099
13.900	-24.914	0.099
14.000	-21.663	0.099
14.100	-14.992	0.099
14.200	-8.331	0.099
14.300	-2.656	0.099
14.400	-2.970	0.099
14.500	-21.661	0.099
14.600	-14.369	0.099
14.700	-21.655	0.099
14.800	-24.346	0.099
14.900	-25.238	0.099
15.000	-15.312	0.099
15.100	-6.287	0.099
15.200	-9.623	0.099
15.300	-10.983	0.099
15.400	-20.912	0.099
15.500	-12.096	0.099
15.600	-24.361	0.099
15.700	-10.865	0.099
15.800	-12.298	0.099
15.900	-18.695	0.099
16.000	-30.585	0.099
16.100	-23.113	0.099
16.200	-11.118	0.099
16.300	-11.142	0.099
16.400	-9.894	0.099
16.500	-16.150	0.099
16.600	-22.037	0.099
16.700	-17.598	0.099
16.800	-20.840	0.099
16.900	-24.326	0.099
17.000	-22.520	0.099
17.100	-11.306	0.099
17.200	0.105	0.099
17.300	-1.460	0.099
17.400	-11.463	0.099
17.500	-11.969	0.099
17.600	-14.970	0.099
17.700	-20.719	0.099
17.800	-22.535	0.099
17.900	-16.780	0.099
18.000	-23.915	0.099
18.100	-22.034	0.099
18.200	-14.027	0.099
18.300	-8.023	0.099
18.400	-13.230	0.099
18.500	-3.265	0.099
18.600	-15.471	0.099
18.700	-21.907	0.099
18.800	-27.490	0.099
18.900	-19.846	0.099
19.000	-6.738	0.099
19.100	-18.249	0.099
19.200	-17.777	0.099
19.300	-17.368	0.099
19.400	-35.416	0.099
19.500	-24.954	0.099
19.600	-17.113	0.099
19.700	-13.157	0.099
19.800	-26.286	0.099
19.900	-23.360	0.099
20.000	-4.517	0.099
20.100	-11.122	0.099
20.200	-18.571	0.099
20.300	-2.576	0.099
20.400	-3.677	0.099
20.500	-17.437	0.099
20.600	-14.900	0.099
20.700	-19.478	0.099
20.800	-22.365	0.099
20.900	-15.353	0.099
21.000	-16.426	0.099
21.100	-21.530	0.099
21.200	-19.256	0.099
21.300	-31.440	0.099
21.400	-29.994	0.099
21.500	-2.867	0.099
21.600	-24.973	0.099
21.700	-26.380	0.099
21.800	-3.242	0.099
21.900	-7.589	0.099
22.000	-13.229	0.099
22.100	-28.901	0.099
22.200	-16.163	0.100
22.300	-2.497	0.100
22.400	-10.954	0.100
22.500	-15.806	0.100
22.600	-8.345	0.100
22.700	-12.901	0.100
22.800	-18.057	0.100
22.900	-14.216	0.100
23.000	-17.283	0.100
23.100	-18.844	0.100
23.200	-7.249	0.100
23.300	-13.485	0.100
23.400	-14.903	0.100
23.500	-2.247	0.100
23.600	-15.321	0.100
23.700	-22.869	0.100
23.800	-11.438	0.100
23.900	-7.486	0.100
24.000	-4.943	0.100
24.100	1.075	0.100
24.200	-13.664	0.100
24.300	-13.477	0.100
24.400	-10.663	0.100
24.500	-22.028	0.100
24.600	-18.675	0.100
24.700	-0.476	0.100
24.800	-14.492	0.100
24.900	-16.903	0.100
25.000	-4.046	0.100
25.100	-12.804	0.100
25.200	-30.697	0.100
25.300	-19.414	0.100
25.400	-17.918	0.100
25.500	-18.664	0.100
25.600	-10.777	0.100
25.700	-11.651	0.100
25.800	-12.102	0.100
25.900	-0.357	0.100
26.000	-13.782	0.100
26.100	-12.815	0.100
26.200	1.282	0.100
26.300	-21.024	0.100
26.400	-19.092	0.100
26.500	-7.083	0.100
26.600	-15.635	0.100
26.700	-15.269	0.100
26.800	-18.419	0.100
26.900	-17.930	0.100
27.000	-5.168	0.100
27.100	-9.672	0.100
27.200	-11.156	0.100
27.300	-23.929	0.100
27.400	-9.211	0.100
27.500	-16.463	0.100
27.600	-8.113	0.100
27.700	-14.582	0.100
27.800	-25.964	0.100
27.900	-13.563	0.100
28.000	4.724	0.100
28.100	-8.473	0.100
28.200	-7.060	0.100
28.300	-13.945	0.100
28.400	-20.591	0.100
28.500	-16.137	0.100
28.600	-13.917	0.100
28.700	-5.742	0.100
28.800	-0.436	0.100
28.900	-5.959	0.100
29.000	-2.883	0.100
29.100	-6.622	0.100
29.200	0.792	0.100
29.300	-12.137	0.100
29.400	-8.628	0.100
29.500	-19.252	0.100
29.600	-12.668	0.100
29.700	-10.572	0.100
29.800	-4.020	0.100
29.900	-9.459	0.100
30.000	-12.142	0.100
30.100	-5.366	0.100
30.200	-5.089	0.100
30.300	-8.958	0.100
30.400	-11.285	0.100
30.500	-6.439	0.100
30.600	-7.471	0.100
30.700	-13.081	0.100
30.800	-7.431	0.100
30.900	-20.329	0.100
31.000	2.337	0.100
31.100	12.684	0.100
31.200	5.748	0.100
31.300	-7.869	0.100
31.400	-11.021	0.100
31.500	3.183	0.100
31.600	8.680	0.100
31.700	-5.291	0.100
31.800	5.985	0.100
31.900	4.402	0.100
32.000	2.257	0.100
32.100	-4.302	0.100
32.200	1.265	0.100
32.300	18.394	0.100
32.400	16.987	0.100
32.500	1.672	0.100
32.600	-2.777	0.100
32.700	-5.432	0.100
32.800	22.360	0.100
32.900	15.477	0.100
33.000	8.772	0.100
33.100	15.991	0.100
33.200	14.918	0.100
33.300	17.004	0.100
33.400	15.982	0.100
33.500	20.867	0.100
33.600	10.716	0.100
33.700	18.023	0.100
33.800	6.076	0.100
33.900	9.598	0.100
34.000	8.168	0.100
34.100	11.269	0.100
34.200	26.786	0.100
34.300	16.020	0.100
34.400	15.765	0.100
34.500	29.967	0.100
34.600	31.210	0.100
34.700	12.730	0.100
34.800	9.212	0.100
34.900	25.150	0.100
35.000	28.562	0.100
35.100	26.717	0.100
35.200	24.243	0.100
35.300	18.706	0.100
35.400	28.004	0.100
35.500	29.861	0.100
35.600	17.580	0.100
35.700	26.573	0.100
35.800	29.407	0.100
35.900	21.502	0.100
36.000	16.694	0.100
36.100	17.862	0.100
36.200	22.975	0.100
36.300	10.190	0.100
36.400	27.909	0.100
36.500	36.379	0.100
36.600	41.111	0.100
36.700	28.634	0.100
36.800	30.449	0.100
36.900	28.076	0.100
37.000	22.280	0.100
37.100	23.527	0.100
37.200	27.975	0.100
37.300	32.652	0.100
37.400	29.042	0.100
37.500	25.027	0.100
37.600	19.613	0.100
37.700	29.763	0.100
37.800	37.247	0.100
37.900	26.550	0.100
38.000	30.998	0.100
38.100	19.205	0.100
38.200	32.576	0.100
38.300	39.411	0.100
38.400	24.995	0.100
38.500	35.862	0.100
38.600	24.045	0.100
38.700	36.984	0.100
38.800	42.284	0.100
38.900	35.251	0.099
39.000	25.682	0.099
39.100	43.417	0.099
39.200	19.372	0.099
39.300	47.597	0.099
39.400	42.967	0.099
39.500	22.139	0.099
39.600	27.969	0.099
39.700	35.894	0.099
39.800	25.395	0.099
39.900	44.503	0.099
40.000	38.034	0.099
40.100	37.136	0.099
40.200	48.687	0.099
40.300	40.596	0.099
40.400	32.755	0.099
40.500	23.856	0.099
40.600	42.546	0.099
40.700	31.201	0.099
40.800	35.939	0.099
40.900	34.840	0.099
41.000	36.230	0.099
41.100	33.052	0.099
41.200	30.523	0.099
41.300	54.406	0.099
41.400	39.184	0.099
41.500	37.041	0.099
41.600	38.999	0.099
41.700	43.991	0.099
41.800	35.505	0.099
41.900	36.603	0.099
42.000	38.520	0.099
42.100	19.888	0.099
42.200	35.504	0.099
42.300	45.567	0.099
42.400	49.755	0.099
42.500	35.166	0.099
42.600	28.513	0.099
42.700	37.450	0.099
42.800	48.665	0.099
42.900	44.531	0.099
43.000	41.778	0.099
43.100	26.559	0.099
43.200	33.946	0.099
43.300	52.289	0.099
43.400	26.094	0.099
43.500	38.701	0.099
43.600	40.457	0.099
43.700	30.557	0.099
43.800	46.197	0.099
43.900	34.346	0.099
44.000	32.993	0.099
44.100	30.479	0.099
44.200	31.490	0.099
44.300	24.313	0.099
44.400	43.518	0.099
44.500	34.749	0.099
44.600	46.205	0.099
44.700	32.625	0.099
44.800	31.228	0.099
44.900	30.856	0.099
45.000	22.608	0.099
45.100	50.189	0.099
45.200	37.475	0.099
45.300	34.193	0.099
45.400	45.054	0.099
45.500	39.787	0.099
45.600	42.615	0.099
45.700	40.055	0.099
45.800	53.318	0.099
45.900	34.648	0.099
46.000	36.059	0.099
46.100	17.767	0.099
46.200	36.819	0.099
46.300	52.095	0.099
46.400	41.772	0.099
46.500	42.845	0.099
46.600	39.425	0.099
46.700	31.661	0.099
46.800	27.776	0.099
46.900	21.580	0.099
47.000	36.894	0.099
47.100	49.217	0.099
47.200	48.868	0.099
47.300	20.879	0.099
47.400	30.499	0.099
47.500	36.170	0.099
47.600	34.713	0.099
47.700	36.908	0.099
47.800	35.623	0.099
47.900	44.476	0.099
48.000	49.677	0.099
48.100	36.850	0.099
48.200	33.137	0.099
48.300	31.233	0.099
48.400	18.447	0.099
48.500	37.435	0.099
48.600	40.380	0.099
48.700	30.797	0.099
48.800	34.824	0.099
48.900	36.856	0.099
49.000	39.137	0.099
49.100	25.205	0.099
49.200	27.427	0.099
49.300	18.821	0.099
49.400	32.773	0.099
49.500	38.783	0.099
49.600	45.147	0.099
49.700	41.076	0.099
49.800	33.800	0.099
49.900	27.733	0.099
50.000	27.123	0.099
50.100	36.223	0.100
50.200	38.608	0.100
50.300	34.365	0.100
50.400	42.566	0.100
50.500	34.034	0.100
50.600	38.281	0.100
50.700	47.638	0.100
50.800	32.504	0.100
50.900	38.120	0.100
51.000	48.935	0.100
51.100	44.395	0.100
51.200	45.693	0.100
51.300	37.037	0.100
51.400	48.623	0.100
51.500	33.705	0.100
51.600	24.798	0.100
51.700	46.334	0.100
51.800	43.001	0.100
51.900	27.434	0.100
52.000	38.456	0.100
52.100	43.033	0.100
52.200	42.978	0.100
52.300	46.827	0.100
52.400	43.975	0.100
52.500	44.663	0.100
52.600	39.719	0.100
52.700	32.760	0.100
52.800	52.516	0.100
52.900	38.084	0.100
53.000	20.398	0.100
53.100	33.488	0.100
53.200	41.241	0.100
53.300	26.991	0.100
53.400	42.000	0.100
53.500	30.480	0.100
53.600	43.679	0.100
53.700	45.095	0.100
53.800	35.350	0.100
53.900	31.392	0.100
54.000	17.220	0.100
54.100	40.709	0.100
54.200	41.431	0.100
54.300	27.197	0.100
54.400	43.306	0.100
54.500	54.159	0.100
54.600	32.054	0.100
54.700	41.571	0.100
54.800	37.851	0.100
54.900	41.209	0.100
55.000	21.655	0.100
55.100	29.574	0.100
55.200	48.935	0.100
55.300	35.752	0.100
55.400	40.049	0.100
55.500	41.405	0.100
55.600	36.543	0.100
55.700	40.081	0.100
55.800	28.699	0.100
55.900	42.796	0.100
56.000	44.743	0.100
56.100	34.864	0.100
56.200	34.231	0.100
56.300	37.895	0.100
56.400	54.035	0.100
56.500	35.680	0.100
56.600	33.635	0.100
56.700	28.201	0.100
56.800	34.708	0.100
56.900	56.292	0.100
57.000	43.808	0.100
57.100	30.607	0.100
57.200	41.878	0.100
57.300	36.854	0.100
57.400	31.475	0.100
57.500	53.174	0.100
57.600	47.036	0.100
57.700	15.243	0.100
57.800	51.796	0.100
57.900	35.671	0.100
58.000	34.782	0.100
58.100	32.488	0.100
58.200	35.778	0.100
58.300	45.160	0.100
58.400	33.782	0.100
58.500	37.874	0.100
58.600	42.147	0.100
58.700	33.284	0.100
58.800	47.444	0.100
58.900	37.066	0.100
59.000	40.700	0.100
59.100	44.010	0.100
59.200	41.038	0.100
59.300	30.741	0.100
59.400	36.016	0.100
59.500	48.271	0.100
59.600	36.224	0.100
59.700	35.842	0.100
59.800	38.750	0.100
59.900	36.402	0.100
60.000	28.296	0.100
60.100	38.758	0.100
60.200	40.576	0.100
60.300	38.876	0.100
60.400	42.574	0.100
60.500	40.067	0.100
60.600	44.431	0.100
60.700	42.764	0.100
60.800	40.619	0.100
60.900	30.365	0.100
61.000	44.896	0.100
61.100	42.334	0.100
61.200	35.372	0.100
61.300	39.997	0.099
61.400	32.907	0.099
61.500	29.885	0.099
61.600	45.144	0.099
61.700	40.571	0.099
61.800	31.959	0.099
61.900	27.448	0.099
62.000	28.763	0.099
62.100	46.047	0.099
62.200	45.419	0.099
62.300	26.743	0.099
62.400	35.821	0.099
62.500	24.365	0.099
62.600	40.434	0.099
62.700	49.131	0.099
62.800	50.927	0.099
62.900	30.244	0.099
63.000	27.725	0.099
63.100	33.610	0.099
63.200	32.893	0.099
63.300	39.154	0.099
63.400	37.066	0.099
63.500	31.464	0.099
63.600	40.499	0.099
63.700	34.296	0.099
63.800	54.213	0.099
63.900	44.591	0.099
64.000	35.884	0.099
64.100	32.812	0.099
64.200	35.268	0.099
64.300	34.780	0.099
64.400	36.034	0.099
64.500	31.500	0.099
64.600	37.838	0.099
64.700	47.750	0.099
64.800	45.554	0.099
64.900	24.400	0.099
65.000	37.424	0.099
65.100	28.625	0.099
65.200	42.175	0.099
65.300	39.371	0.099
65.400	24.995	0.099
65.500	53.733	0.099
65.600	39.761	0.099
65.700	29.902	0.099
65.800	35.548	0.099
65.900	33.158	0.099
66.000	44.033	0.099
66.100	29.524	0.099
66.200	44.692	0.099
66.300	44.989	0.099
66.400	40.340	0.099
66.500	34.011	0.099
66.600	32.163	0.099
66.700	41.545	0.099
66.800	45.362	0.099
66.900	26.763	0.099
67.000	35.836	0.099
67.100	60.553	0.099
67.200	43.645	0.099
67.300	40.148	0.099
67.400	39.195	0.099
67.500	23.847	0.099
67.600	36.299	0.099
67.700	25.938	0.099
67.800	50.802	0.099
67.900	43.155	0.099
68.000	32.079	0.099
68.100	41.359	0.099
68.200	42.512	0.099
68.300	57.130	0.099
68.400	40.357	0.099
68.500	51.739	0.099
68.600	44.243	0.099
68.700	35.744	0.099
68.800	39.241	0.099
68.900	37.676	0.099
69.000	35.868	0.099
69.100	47.736	0.099
69.200	34.242	0.099
69.300	31.907	0.099
69.400	22.377	0.099
69.500	55.372	0.099
69.600	46.878	0.099
69.700	37.421	0.099
69.800	30.748	0.099
69.900	38.195	0.099
70.000	36.431	0.099
70.100	23.219	0.099
70.200	45.164	0.099
70.300	34.996	0.099
70.400	34.562	0.099
70.500	43.987	0.099
70.600	41.609	0.099
70.700	37.430	0.099
70.800	40.832	0.099
70.900	40.283	0.099
71.000	47.324	0.099
71.100	40.000	0.099
71.200	33.175	0.099
71.300	21.661	0.099
71.400	52.611	0.099
71.500	46.735	0.099
71.600	51.351	0.099
71.700	32.588	0.099
71.800	22.631	0.099
71.900	33.584	0.099
72.000	38.179	0.099
72.100	50.718	0.099
72.200	43.532	0.099
72.300	34.259	0.099
72.400	37.904	0.099
72.500	31.869	0.099
72.600	59.240	0.099
72.700	50.979	0.099
72.800	40.706	0.099
72.900	43.098	0.099
73.000	29.861	0.099
73.100	46.820	0.099
73.200	31.461	0.099
73.300	27.370	0.099
73.400	40.253	0.099
73.500	45.713	0.099
73.600	35.606	0.099
73.700	46.262	0.099
73.800	36.509	0.099
73.900	41.746	0.099
74.000	44.450	0.099
74.100	30.604	0.099
74.200	44.626	0.099
74.300	36.938	0.099
74.400	41.010	0.099
74.500	55.863	0.099
74.600	44.517	0.099
74.700	41.102	0.099
74.800	48.363	0.099
74.900	34.171	0.099
75.000	48.120	0.099
75.100	39.650	0.099
75.200	31.608	0.099
75.300	48.848	0.100
75.400	41.813	0.099
75.500	48.065	0.099
75.600	40.490	0.100
75.700	38.436	0.099
75.800	43.691	0.100
75.900	34.153	0.100
76.000	36.299	0.100
76.100	43.633	0.100
76.200	49.020	0.100
76.300	50.166	0.100
76.400	42.532	0.100
76.500	36.528	0.100
76.600	45.296	0.100
76.700	44.376	0.100
76.800	41.989	0.100
76.900	24.768	0.100
77.000	15.546	0.100
77.100	25.760	0.100
77.200	45.846	0.100
77.300	39.200	0.100
77.400	40.026	0.100
77.500	59.695	0.100
77.600	37.021	0.100
77.700	47.359	0.100
77.800	48.465	0.100
77.900	41.897	0.100
78.000	39.479	0.100
78.100	39.966	0.100
78.200	55.269	0.100
78.300	56.375	0.100
78.400	36.840	0.100
78.500	46.823	0.100
78.600	55.548	0.100
78.700	47.519	0.100
78.800	51.616	0.100
78.900	30.169	0.100
79.000	47.148	0.100
79.100	47.546	0.100
79.200	45.534	0.100
79.300	35.701	0.100
79.400	54.563	0.100
79.500	62.433	0.100
79.600	27.151	0.100
79.700	37.030	0.100
79.800	44.796	0.100
79.900	25.651	0.100
80.000	53.290	0.100
80.100	47.606	0.100
80.200	43.752	0.100
80.300	51.762	0.100
80.400	43.506	0.100
80.500	49.027	0.100
80.600	24.736	0.100
80.700	47.577	0.100
80.800	38.396	0.100
80.900	34.854	0.100
81.000	47.770	0.100
81.100	36.423	0.100
81.200	29.110	0.100
81.300	63.098	0.100
81.400	47.494	0.100
81.500	52.742	0.100
81.600	42.713	0.100
81.700	38.266	0.100
81.800	56.974	0.100
81.900	60.952	0.100
82.000	53.065	0.100
82.100	46.709	0.100
82.200	59.669	0.100
82.300	30.652	0.100
82.400	24.972	0.100
82.500	40.719	0.100
82.600	63.097	0.100
82.700	51.270	0.100
82.800	50.364	0.100
82.900	51.765	0.100
83.000	51.181	0.100
83.100	45.649	0.100
83.200	45.949	0.100
83.300	58.622	0.100
83.400	43.867	0.100
83.500	47.519	0.100
83.600	51.488	0.100
83.700	42.592	0.100
83.800	33.117	0.100
83.900	43.729	0.100
84.000	63.441	0.100
84.100	54.958	0.100
84.200	53.042	0.100
84.300	53.086	0.100
84.400	54.287	0.100
84.500	60.281	0.100
84.600	60.819	0.100
84.700	40.604	0.100
84.800	56.014	0.100
84.900	50.881	0.100
85.000	52.036	0.100
85.100	59.926	0.100
85.200	41.077	0.100
85.300	53.634	0.100
85.400	40.939	0.100
85.500	38.516	0.100
85.600	40.634	0.100
85.700	52.607	0.100
85.800	59.246	0.100
85.900	47.320	0.100
86.000	30.359	0.100
86.100	53.923	0.100
86.200	56.450	0.100
86.300	75.722	0.100
86.400	56.336	0.100
86.500	60.120	0.100
86.600	66.159	0.100
86.700	44.848	0.100
86.800	53.016	0.100
86.900	54.247	0.100
87.000	63.405	0.100
87.100	52.834	0.100
87.200	54.198	0.100
87.300	62.989	0.100
87.400	68.243	0.100
87.500	62.169	0.100
87.600	54.414	0.100
87.700	50.580	0.100
87.800	55.642	0.100
87.900	47.669	0.100
88.000	54.831	0.100
88.100	57.949	0.100
88.200	49.949	0.100
88.300	52.130	0.100
88.400	38.657	0.100
88.500	43.489	0.100
88.600	68.129	0.100
88.700	38.479	0.100
88.800	56.851	0.100
88.900	62.238	0.100
89.000	74.002	0.100
89.100	59.683	0.100
89.200	60.918	0.100
89.300	41.180	0.100
89.400	53.678	0.100
89.500	55.737	0.100
89.600	51.848	0.100
89.700	49.729	0.100
89.800	62.598	0.100
89.900	51.184	0.100
90.000	42.661	0.100
90.100	39.402	0.100
90.200	56.030	0.100
90.300	58.487	0.100
90.400	68.727	0.100
90.500	57.855	0.100
90.600	56.122	0.100
90.700	40.467	0.100
90.800	52.700	0.100
90.900	47.379	0.100
91.000	38.741	0.100
91.100	50.128	0.100
91.200	41.093	0.100
91.300	49.107	0.100
91.400	49.801	0.100
91.500	43.444	0.100
91.600	36.873	0.100
91.700	42.235	0.100
91.800	32.832	0.100
91.900	34.224	0.100
92.000	44.059	0.100
92.100	38.140	0.100
92.200	27.945	0.100
92.300	31.863	0.100
92.400	30.644	0.101
92.500	29.283	0.101
92.600	35.524	0.100
92.700	38.884	0.100
92.800	37.424	0.100
92.900	20.873	0.100
93.000	18.808	0.100
93.100	37.541	0.100
93.200	22.103	0.100
93.300	18.241	0.100
93.400	38.933	0.100
93.500	34.849	0.100
93.600	31.674	0.100
93.700	26.271	0.100
93.800	6.226	0.100
93.900	24.523	0.100
94.000	20.009	0.100
94.100	17.663	0.100
94.200	9.509	0.100
94.300	42.071	0.100
94.400	12.891	0.100
94.500	22.717	0.100
94.600	3.897	0.100
94.700	4.064	0.100
