time /s	I /nA	E /V
0.100	21.853	0.100
0.200	40.959	0.100
0.300	41.166	0.100
0.400	11.386	0.100
0.500	35.257	0.100
0.600	17.852	0.100
0.700	48.250	0.100
0.800	46.077	0.100
0.900	20.598	0.100
1.000	31.136	0.100
1.100	24.628	0.100
1.200	46.504	0.100
1.300	41.281	0.100
1.400	27.938	0.100
1.500	15.721	0.100
1.600	37.870	0.100
1.700	45.803	0.100
1.800	29.566	0.100
1.900	41.434	0.100
2.000	28.537	0.100
2.100	28.897	0.100
2.200	41.119	0.100
2.300	28.487	0.100
2.400	20.416	0.100
2.500	37.367	0.100
2.600	39.345	0.100
2.700	40.471	0.100
2.800	46.288	0.100
2.900	33.423	0.100
3.000	45.910	0.100
3.100	26.704	0.100
3.200	21.509	0.100
3.300	24.222	0.100
3.400	39.754	0.100
3.500	33.629	0.100
3.600	27.069	0.100
3.700	42.347	0.100
3.800	31.966	0.100
3.900	26.780	0.100
4.000	29.533	0.100
4.100	30.734	0.100
4.200	48.531	0.100
4.300	48.334	0.100
4.400	35.633	0.100
4.500	21.215	0.100
4.600	37.037	0.100
4.700	20.549	0.100
4.800	46.471	0.100
4.900	29.342	0.100
5.000	37.274	0.100
5.100	31.349	0.100
5.200	38.453	0.100
5.300	38.512	0.100
5.400	38.339	0.100
5.500	28.593	0.100
5.600	36.813	0.100
5.700	42.919	0.100
5.800	26.139	0.100
5.900	27.586	0.100
6.000	35.946	0.100
6.100	20.787	0.100
6.200	18.701	0.100
6.300	44.165	0.100
6.400	52.867	0.100
6.500	28.392	0.100
6.600	30.532	0.100
6.700	34.362	0.100
6.800	37.700	0.100
6.900	35.895	0.100
7.000	37.125	0.100
7.100	31.143	0.100
7.200	27.636	0.100
7.300	44.795	0.100
7.400	26.266	0.100
7.500	30.333	0.100
7.600	28.507	0.100
7.700	41.367	0.100
7.800	30.257	0.100
7.900	19.354	0.100
8.000	28.384	0.100
8.100	43.378	0.100
8.200	25.242	0.100
8.300	23.824	0.100
8.400	28.635	0.100
8.500	38.055	0.100
8.600	18.865	0.100
8.700	22.239	0.100
8.800	39.693	0.100
8.900	32.746	0.100
9.000	37.532	0.100
9.100	18.367	0.100
9.200	35.466	0.100
9.300	40.538	0.100
9.400	26.834	0.100
9.500	31.240	0.100
9.600	30.319	0.100
9.700	33.218	0.100
9.800	30.830	0.100
9.900	18.322	0.100
10.000	39.838	0.100
10.100	38.044	0.100
10.200	43.136	0.100
10.300	21.983	0.100
10.400	32.823	0.100
10.500	20.761	0.100
10.600	17.632	0.100
10.700	32.485	0.100
10.800	36.875	0.100
10.900	38.542	0.100
11.000	22.819	0.100
11.100	34.254	0.100
11.200	32.719	0.100
11.300	23.194	0.100
11.400	48.912	0.100
11.500	33.149	0.100
11.600	31.900	0.100
11.700	7.370	0.100
11.800	30.509	0.100
11.900	41.939	0.100
12.000	29.985	0.100
12.100	29.615	0.100
12.200	36.920	0.100
12.300	35.677	0.100
12.400	35.084	0.100
12.500	25.478	0.100
12.600	44.392	0.100
12.700	34.787	0.100
12.800	32.766	0.100
12.900	19.673	0.100
13.000	22.543	0.100
13.100	40.525	0.100
13.200	30.676	0.100
13.300	33.349	0.100
13.400	30.153	0.100
13.500	31.860	0.100
13.600	22.436	0.100
13.700	32.204	0.100
13.800	36.973	0.100
13.900	30.635	0.100
14.000	39.849	0.100
14.100	44.793	0.100
14.200	30.288	0.100
14.300	50.930	0.100
14.400	26.131	0.100
14.500	35.789	0.100
14.600	43.638	0.100
14.700	18.327	0.100
14.800	25.582	0.100
14.900	24.854	0.100
15.000	25.994	0.100
15.100	15.447	0.100
15.200	28.378	0.100
15.300	32.096	0.100
15.400	41.966	0.100
15.500	41.861	0.100
15.600	21.230	0.100
15.700	38.252	0.100
15.800	23.310	0.100
15.900	33.387	0.100
16.000	39.885	0.100
16.100	26.954	0.100
16.200	31.066	0.100
16.300	36.481	0.100
16.400	18.508	0.100
16.500	32.671	0.100
16.600	25.419	0.100
16.700	27.898	0.100
16.800	26.023	0.100
16.900	39.007	0.100
17.000	37.342	0.100
17.100	35.424	0.100
17.200	34.651	0.100
17.300	28.326	0.100
17.400	34.959	0.100
17.500	29.160	0.100
17.600	25.809	0.100
17.700	28.201	0.100
17.800	17.999	0.100
17.900	36.576	0.100
18.000	26.884	0.100
18.100	61.120	0.100
18.200	10.794	0.100
18.300	13.263	0.100
18.400	22.179	0.100
18.500	41.055	0.100
18.600	37.990	0.100
18.700	39.524	0.100
18.800	42.828	0.100
18.900	29.848	0.100
19.000	8.959	0.100
19.100	21.844	0.100
19.200	46.779	0.100
19.300	34.113	0.100
19.400	33.558	0.100
19.500	60.065	0.100
19.600	8.833	0.100
19.700	22.020	0.100
19.800	33.409	0.100
19.900	34.807	0.100
20.000	39.652	0.100
20.100	24.295	0.100
20.200	32.117	0.100
20.300	33.684	0.100
20.400	39.959	0.100
20.500	34.633	0.100
20.600	18.615	0.100
20.700	38.788	0.100
20.800	22.210	0.100
20.900	35.253	0.100
21.000	32.676	0.100
21.100	33.212	0.100
21.200	40.220	0.100
21.300	36.737	0.100
21.400	48.252	0.100
21.500	39.429	0.100
21.600	32.060	0.100
21.700	27.106	0.100
21.800	9.180	0.100
21.900	31.096	0.100
22.000	25.187	0.100
22.100	45.356	0.100
22.200	32.474	0.100
22.300	31.104	0.100
22.400	34.712	0.100
22.500	25.198	0.100
22.600	35.570	0.100
22.700	25.520	0.100
22.800	14.513	0.100
22.900	31.789	0.100
23.000	40.209	0.100
23.100	36.429	0.100
23.200	26.684	0.100
23.300	20.170	0.100
23.400	33.736	0.100
23.500	22.253	0.100
23.600	29.659	0.100
23.700	25.341	0.100
23.800	22.703	0.100
23.900	32.377	0.100
24.000	24.945	0.100
24.100	51.981	0.100
24.200	26.648	0.100
24.300	36.508	0.100
24.400	37.302	0.100
24.500	33.779	0.100
24.600	24.207	0.100
24.700	42.216	0.100
24.800	27.529	0.100
24.900	30.004	0.100
25.000	41.879	0.100
25.100	24.653	0.100
25.200	24.730	0.100
25.300	25.454	0.100
25.400	16.124	0.100
25.500	32.208	0.100
25.600	38.548	0.100
25.700	44.767	0.100
25.800	24.252	0.100
25.900	51.963	0.100
26.000	33.923	0.100
26.100	21.560	0.100
26.200	35.833	0.100
26.300	23.272	0.100
26.400	20.587	0.100
26.500	25.462	0.100
26.600	30.922	0.100
26.700	34.206	0.100
26.800	37.807	0.100
26.900	37.213	0.100
27.000	38.929	0.100
27.100	30.038	0.100
27.200	8.802	0.100
27.300	20.751	0.100
27.400	24.004	0.100
27.500	40.160	0.100
27.600	21.808	0.100
27.700	22.683	0.100
27.800	58.819	0.100
27.900	35.680	0.100
28.000	15.989	0.100
28.100	30.481	0.100
28.200	21.123	0.100
28.300	25.614	0.100
28.400	26.568	0.100
28.500	46.212	0.100
28.600	22.933	0.100
28.700	23.522	0.100
28.800	21.960	0.100
28.900	24.238	0.100
29.000	18.556	0.100
29.100	31.701	0.100
29.200	44.364	0.100
29.300	29.185	0.100
29.400	26.400	0.100
29.500	39.831	0.100
29.600	28.440	0.100
29.700	14.079	0.100
29.800	24.822	0.100
29.900	46.864	0.100
30.000	39.820	0.100
30.100	27.146	0.100
30.200	34.532	0.100
30.300	39.513	0.100
30.400	30.108	0.100
30.500	37.288	0.100
30.600	13.056	0.100
30.700	37.082	0.100
30.800	38.208	0.100
30.900	42.889	0.100
31.000	42.784	0.100
31.100	42.924	0.100
31.200	39.059	0.100
31.300	40.929	0.100
31.400	46.458	0.100
31.500	43.370	0.100
31.600	48.422	0.100
31.700	53.992	0.100
31.800	41.613	0.100
31.900	54.676	0.100
32.000	48.174	0.100
32.100	45.497	0.100
32.200	47.810	0.100
32.300	37.311	0.100
32.400	38.412	0.100
32.500	59.054	0.100
32.600	47.237	0.100
32.700	57.980	0.100
32.800	59.358	0.100
32.900	56.696	0.100
33.000	63.112	0.100
33.100	46.899	0.100
33.200	67.383	0.100
33.300	56.851	0.100
33.400	63.483	0.100
33.500	67.502	0.100
33.600	58.593	0.100
33.700	52.006	0.100
33.800	43.860	0.100
33.900	48.575	0.100
34.000	61.385	0.100
34.100	61.997	0.100
34.200	60.660	0.100
34.300	46.231	0.100
34.400	56.367	0.100
34.500	72.300	0.100
34.600	44.664	0.100
34.700	68.086	0.100
34.800	74.162	0.100
34.900	70.749	0.100
35.000	74.362	0.100
35.100	56.326	0.100
35.200	51.260	0.100
35.300	47.890	0.100
35.400	66.340	0.100
35.500	64.639	0.100
35.600	68.843	0.100
35.700	63.968	0.100
35.800	63.724	0.100
35.900	71.158	0.100
36.000	62.380	0.100
36.100	74.158	0.100
36.200	57.790	0.100
36.300	64.543	0.100
36.400	46.152	0.100
36.500	46.042	0.100
36.600	58.075	0.100
36.700	74.088	0.100
36.800	59.776	0.100
36.900	74.987	0.100
37.000	67.876	0.100
37.100	54.937	0.100
37.200	58.679	0.100
37.300	70.397	0.100
37.400	60.058	0.100
37.500	67.092	0.100
37.600	59.443	0.100
37.700	61.340	0.100
37.800	75.395	0.100
37.900	52.669	0.100
38.000	51.392	0.100
38.100	72.808	0.100
38.200	68.553	0.100
38.300	69.525	0.100
38.400	61.461	0.100
38.500	76.639	0.100
38.600	57.074	0.100
38.700	64.328	0.100
38.800	76.082	0.100
38.900	80.961	0.100
39.000	58.336	0.100
39.100	83.006	0.100
39.200	57.686	0.100
39.300	54.595	0.100
39.400	60.631	0.100
39.500	55.257	0.100
39.600	55.662	0.100
39.700	61.200	0.100
39.800	74.913	0.100
39.900	72.824	0.100
40.000	80.960	0.100
40.100	65.611	0.100
40.200	63.343	0.100
40.300	55.788	0.100
40.400	68.264	0.100
40.500	70.185	0.100
40.600	60.273	0.100
40.700	63.252	0.100
40.800	59.049	0.100
40.900	59.134	0.100
41.000	74.120	0.100
41.100	61.971	0.100
41.200	65.875	0.100
41.300	57.236	0.100
41.400	46.239	0.100
41.500	72.198	0.100
41.600	71.610	0.100
41.700	59.720	0.100
41.800	69.891	0.100
41.900	72.647	0.100
42.000	66.972	0.100
42.100	51.004	0.100
42.200	68.594	0.100
42.300	65.784	0.100
42.400	76.041	0.100
42.500	73.541	0.100
42.600	62.064	0.100
42.700	62.891	0.100
42.800	53.205	0.100
42.900	72.608	0.100
43.000	64.044	0.100
43.100	65.798	0.100
43.200	31.725	0.100
43.300	57.821	0.100
43.400	51.124	0.100
43.500	60.215	0.100
43.600	67.215	0.100
43.700	65.741	0.100
43.800	69.771	0.100
43.900	59.184	0.100
44.000	76.492	0.100
44.100	61.252	0.100
44.200	73.894	0.100
44.300	70.466	0.100
44.400	65.678	0.100
44.500	69.774	0.100
44.600	51.661	0.100
44.700	64.801	0.100
44.800	59.627	0.100
44.900	71.191	0.100
45.000	62.649	0.100
45.100	50.182	0.100
45.200	70.994	0.100
45.300	56.797	0.100
45.400	73.330	0.100
45.500	66.483	0.100
45.600	60.219	0.100
45.700	60.247	0.100
45.800	68.920	0.100
45.900	65.941	0.100
46.000	70.972	0.100
46.100	67.684	0.100
46.200	57.124	0.100
46.300	73.573	0.100
46.400	57.393	0.100
46.500	52.653	0.100
46.600	78.571	0.100
46.700	60.808	0.100
46.800	55.518	0.100
46.900	67.429	0.100
47.000	62.543	0.100
47.100	70.831	0.100
47.200	66.793	0.100
47.300	56.117	0.100
47.400	61.293	0.100
47.500	61.458	0.100
47.600	51.182	0.100
47.700	70.071	0.100
47.800	65.856	0.100
47.900	65.064	0.100
48.000	53.063	0.100
48.100	65.049	0.100
48.200	74.145	0.100
48.300	67.608	0.100
48.400	56.436	0.100
48.500	74.806	0.100
48.600	76.471	0.100
48.700	71.836	0.100
48.800	62.735	0.100
48.900	75.869	0.100
49.000	67.178	0.100
49.100	58.158	0.100
49.200	65.229	0.100
49.300	60.974	0.100
49.400	71.477	0.100
49.500	64.244	0.100
49.600	55.335	0.100
49.700	53.389	0.100
49.800	57.820	0.100
49.900	60.741	0.100
50.000	71.543	0.100
50.100	87.505	0.100
50.200	64.373	0.100
50.300	50.018	0.100
50.400	69.930	0.100
50.500	53.375	0.100
50.600	55.143	0.100
50.700	62.551	0.100
50.800	57.356	0.100
50.900	58.696	0.100
51.000	42.638	0.100
51.100	67.354	0.100
51.200	64.389	0.100
51.300	71.813	0.100
51.400	67.160	0.100
51.500	59.338	0.100
51.600	53.515	0.100
51.700	66.426	0.100
51.800	43.871	0.100
51.900	68.591	0.100
52.000	79.628	0.100
52.100	56.467	0.100
52.200	61.587	0.100
52.300	52.616	0.100
52.400	59.251	0.100
52.500	51.471	0.100
52.600	62.369	0.100
52.700	68.938	0.100
52.800	61.538	0.100
52.900	61.898	0.100
53.000	66.367	0.100
53.100	56.546	0.100
53.200	55.778	0.100
53.300	58.493	0.100
53.400	68.436	0.100
53.500	58.517	0.100
53.600	61.416	0.100
53.700	60.465	0.100
53.800	70.837	0.100
53.900	62.856	0.100
54.000	65.786	0.100
54.100	67.827	0.100
54.200	70.938	0.100
54.300	71.628	0.100
54.400	60.264	0.100
54.500	60.984	0.100
54.600	49.774	0.100
54.700	65.175	0.100
54.800	58.129	0.100
54.900	77.248	0.100
55.000	78.095	0.100
55.100	67.432	0.100
55.200	61.076	0.100
55.300	63.467	0.100
55.400	63.089	0.100
55.500	63.878	0.100
55.600	69.614	0.100
55.700	61.513	0.100
55.800	77.483	0.100
55.900	69.741	0.100
56.000	58.349	0.100
56.100	59.770	0.100
56.200	67.869	0.100
56.300	62.512	0.100
56.400	50.208	0.100
56.500	54.512	0.100
56.600	73.981	0.100
56.700	60.810	0.100
56.800	67.800	0.100
56.900	67.759	0.100
57.000	61.457	0.100
57.100	65.884	0.100
57.200	64.582	0.100
57.300	69.249	0.100
57.400	70.556	0.100
57.500	57.658	0.100
57.600	70.100	0.100
57.700	68.919	0.100
57.800	62.654	0.100
57.900	57.080	0.100
58.000	66.776	0.100
58.100	56.340	0.100
58.200	48.344	0.100
58.300	62.008	0.100
58.400	78.868	0.100
58.500	67.717	0.100
58.600	57.110	0.100
58.700	72.442	0.100
58.800	55.423	0.100
58.900	61.385	0.100
59.000	64.499	0.100
59.100	56.333	0.100
59.200	73.272	0.100
59.300	65.814	0.100
59.400	73.875	0.100
59.500	50.700	0.100
59.600	57.163	0.100
59.700	68.737	0.100
59.800	63.276	0.100
59.900	59.128	0.100
60.000	83.681	0.100
60.100	82.325	0.100
60.200	58.615	0.100
60.300	82.132	0.100
60.400	68.164	0.100
60.500	68.243	0.100
60.600	71.294	0.100
60.700	65.965	0.100
60.800	57.386	0.100
60.900	40.810	0.100
61.000	72.079	0.100
61.100	72.997	0.100
61.200	78.694	0.100
61.300	62.861	0.100
61.400	59.505	0.100
61.500	86.147	0.100
61.600	72.017	0.100
61.700	94.445	0.100
61.800	81.027	0.100
61.900	71.205	0.100
62.000	64.170	0.100
62.100	71.014	0.100
62.200	69.500	0.100
62.300	77.384	0.100
62.400	61.032	0.100
62.500	66.872	0.100
62.600	41.327	0.100
62.700	46.712	0.100
62.800	59.614	0.100
62.900	73.941	0.100
63.000	67.598	0.100
63.100	71.729	0.100
63.200	55.505	0.100
63.300	64.533	0.100
63.400	60.589	0.100
63.500	62.151	0.100
63.600	71.468	0.100
63.700	63.518	0.100
63.800	63.841	0.100
63.900	62.468	0.100
64.000	61.841	0.100
64.100	71.827	0.100
64.200	67.496	0.100
64.300	68.494	0.100
64.400	73.132	0.100
64.500	57.906	0.100
64.600	72.319	0.100
64.700	82.523	0.100
64.800	73.999	0.100
64.900	76.082	0.100
65.000	53.603	0.100
65.100	77.295	0.100
65.200	53.824	0.100
65.300	71.497	0.100
65.400	76.099	0.100
65.500	58.719	0.100
65.600	72.898	0.100
65.700	67.449	0.100
65.800	64.997	0.100
65.900	70.267	0.100
66.000	70.296	0.100
66.100	68.567	0.100
66.200	65.518	0.100
66.300	58.155	0.100
66.400	92.338	0.100
66.500	56.799	0.100
66.600	65.616	0.100
66.700	48.079	0.100
66.800	68.711	0.100
66.900	53.829	0.100
67.000	81.758	0.100
67.100	81.989	0.100
67.200	56.921	0.100
67.300	88.925	0.100
67.400	53.250	0.100
67.500	47.100	0.100
67.600	78.784	0.100
67.700	67.288	0.100
67.800	72.199	0.100
67.900	72.360	0.100
68.000	74.019	0.100
68.100	67.641	0.100
68.200	69.300	0.100
68.300	66.659	0.100
68.400	93.054	0.100
68.500	74.132	0.100
68.600	48.126	0.100
68.700	56.044	0.100
68.800	62.691	0.100
68.900	49.852	0.100
69.000	53.891	0.100
69.100	91.360	0.100
69.200	87.786	0.100
69.300	68.374	0.100
69.400	69.820	0.100
69.500	58.289	0.100
69.600	60.533	0.100
69.700	67.149	0.100
69.800	59.918	0.100
69.900	85.537	0.100
70.000	81.996	0.100
70.100	66.813	0.100
70.200	75.687	0.100
70.300	73.524	0.100
70.400	68.447	0.100
70.500	78.900	0.100
70.600	78.037	0.100
70.700	67.977	0.100
70.800	79.852	0.100
70.900	78.352	0.100
71.000	54.850	0.100
71.100	81.583	0.100
71.200	54.213	0.100
71.300	69.156	0.100
71.400	74.037	0.100
71.500	77.166	0.100
71.600	72.637	0.100
71.700	60.017	0.100
71.800	56.180	0.100
71.900	60.267	0.100
72.000	69.426	0.100
72.100	78.806	0.100
72.200	58.883	0.100
72.300	76.274	0.100
72.400	77.918	0.100
72.500	77.884	0.100
72.600	73.589	0.100
72.700	62.007	0.100
72.800	72.409	0.100
72.900	82.859	0.100
73.000	68.941	0.100
73.100	60.541	0.100
73.200	70.031	0.100
73.300	74.793	0.100
73.400	78.885	0.100
73.500	63.472	0.100
73.600	76.478	0.100
73.700	70.017	0.100
73.800	57.637	0.100
73.900	68.934	0.100
74.000	70.786	0.100
74.100	74.165	0.100
74.200	68.553	0.100
74.300	54.152	0.100
74.400	53.671	0.100
74.500	87.310	0.100
74.600	92.703	0.100
74.700	81.152	0.100
74.800	76.491	0.100
74.900	70.552	0.100
75.000	65.101	0.100
75.100	72.668	0.100
75.200	65.707	0.100
75.300	81.630	0.100
75.400	68.298	0.100
75.500	73.994	0.100
75.600	65.057	0.100
75.700	66.881	0.100
75.800	73.598	0.100
75.900	80.332	0.100
76.000	85.526	0.100
76.100	74.235	0.100
76.200	71.832	0.100
76.300	71.962	0.100
76.400	65.811	0.100
76.500	72.837	0.100
76.600	64.782	0.100
76.700	83.065	0.100
76.800	71.129	0.100
76.900	64.472	0.100
77.000	76.824	0.100
77.100	82.256	0.100
77.200	78.431	0.100
77.300	83.243	0.100
77.400	60.839	0.100
77.500	74.573	0.100
77.600	67.641	0.100
77.700	89.044	0.100
77.800	74.973	0.100
77.900	73.268	0.100
78.000	57.352	0.100
78.100	68.286	0.100
78.200	70.325	0.100
78.300	70.404	0.100
78.400	83.162	0.100
78.500	72.351	0.100
78.600	81.296	0.100
78.700	82.189	0.100
78.800	57.219	0.100
78.900	75.749	0.100
79.000	66.117	0.100
79.100	81.511	0.100
79.200	62.822	0.100
79.300	80.020	0.100
79.400	63.395	0.100
79.500	67.889	0.100
79.600	71.151	0.100
79.700	82.738	0.100
79.800	79.427	0.100
79.900	63.447	0.100
80.000	62.220	0.100
80.100	81.018	0.100
80.200	77.452	0.100
80.300	70.981	0.100
80.400	85.033	0.100
80.500	73.913	0.100
80.600	64.322	0.100
80.700	94.114	0.100
80.800	77.148	0.100
80.900	82.679	0.100
81.000	73.724	0.100
81.100	58.554	0.100
81.200	62.573	0.100
81.300	64.897	0.100
81.400	90.184	0.100
81.500	83.041	0.100
81.600	66.965	0.100
81.700	77.590	0.100
81.800	80.157	0.100
81.900	73.937	0.100
82.000	81.415	0.100
82.100	70.786	0.100
82.200	56.965	0.100
82.300	77.518	0.100
82.400	96.295	0.100
82.500	87.929	0.100
82.600	71.203	0.100
82.700	81.446	0.100
82.800	83.353	0.100
82.900	59.688	0.100
83.000	74.426	0.100
83.100	69.557	0.100
83.200	71.247	0.100
83.300	69.900	0.100
83.400	71.961	0.100
83.500	67.841	0.100
83.600	75.013	0.100
83.700	67.689	0.100
83.800	80.822	0.100
83.900	54.254	0.100
84.000	77.365	0.100
84.100	86.320	0.100
84.200	62.418	0.100
84.300	79.996	0.100
84.400	84.443	0.100
84.500	93.268	0.100
84.600	70.258	0.100
84.700	70.794	0.100
84.800	73.873	0.100
84.900	79.541	0.100
85.000	77.037	0.100
85.100	83.339	0.100
85.200	88.809	0.100
85.300	69.782	0.100
85.400	74.512	0.100
85.500	82.890	0.100
85.600	61.399	0.100
85.700	82.602	0.100
85.800	70.191	0.100
85.900	82.786	0.100
86.000	82.006	0.100
86.100	68.585	0.100
86.200	84.757	0.100
86.300	76.720	0.100
86.400	78.390	0.100
86.500	70.878	0.100
86.600	85.139	0.100
86.700	63.081	0.100
86.800	73.254	0.100
86.900	89.440	0.100
87.000	88.432	0.100
87.100	73.979	0.100
87.200	57.414	0.100
87.300	83.728	0.100
87.400	75.374	0.100
87.500	66.008	0.100
87.600	78.584	0.100
87.700	81.637	0.100
87.800	85.752	0.100
87.900	86.251	0.100
88.000	66.418	0.100
88.100	89.613	0.100
88.200	84.364	0.100
88.300	77.999	0.100
88.400	84.741	0.100
88.500	78.422	0.100
88.600	74.326	0.100
88.700	65.125	0.100
88.800	77.010	0.100
88.900	77.051	0.100
89.000	79.068	0.100
89.100	81.625	0.100
89.200	85.991	0.100
89.300	80.366	0.100
89.400	82.890	0.100
89.500	86.154	0.100
89.600	74.037	0.100
89.700	50.079	0.100
89.800	78.920	0.100
89.900	85.641	0.100
90.000	71.424	0.100
90.100	76.080	0.100
90.200	77.818	0.100
90.300	79.830	0.100
90.400	77.769	0.100
90.500	75.047	0.100
90.600	75.478	0.100
90.700	72.766	0.100
90.800	67.076	0.100
90.900	62.951	0.100
91.000	67.985	0.100
91.100	77.170	0.100
91.200	80.670	0.100
91.300	72.323	0.100
91.400	81.384	0.100
91.500	67.929	0.100
91.600	68.926	0.100
91.700	61.023	0.100
91.800	76.107	0.100
91.900	62.615	0.100
92.000	46.719	0.100
92.100	69.948	0.100
92.200	62.742	0.100
92.300	71.073	0.100
92.400	50.289	0.100
92.500	65.635	0.100
92.600	49.147	0.100
92.700	71.631	0.100
92.800	66.604	0.100
92.900	57.310	0.100
93.000	54.258	0.100
93.100	58.423	0.100
93.200	64.395	0.100
93.300	54.387	0.100
93.400	72.417	0.100
93.500	55.931	0.100
93.600	48.845	0.100
93.700	61.436	0.100
93.800	49.572	0.100
93.900	65.373	0.100
94.000	53.455	0.100
94.100	47.106	0.100
94.200	46.058	0.100
94.300	59.322	0.100
94.400	43.230	0.100
94.500	55.581	0.100
94.600	54.777	0.100
94.700	53.869	0.100
94.800	38.994	0.100
94.900	56.980	0.100
95.000	59.529	0.100
95.100	54.004	0.100
95.200	29.338	0.100
95.300	56.683	0.100
95.400	58.516	0.100
95.500	44.451	0.100
95.600	49.850	0.100
