time /s	I /nA	E /V
0.100	-19.571	0.100
0.200	-18.004	0.100
0.300	-18.418	0.100
0.400	-14.099	0.100
0.500	-8.254	0.100
0.600	-12.909	0.100
0.700	-19.603	0.100
0.800	-23.097	0.100
0.900	-16.173	0.100
1.000	-25.474	0.100
1.100	-19.131	0.100
1.200	-18.092	0.100
1.300	-16.335	0.100
1.400	-8.470	0.100
1.500	-13.005	0.100
1.600	-24.861	0.100
1.700	-12.071	0.100
1.800	-11.421	0.100
1.900	-20.583	0.100
2.000	-13.710	0.100
2.100	-12.097	0.100
2.200	-14.667	0.100
2.300	-14.444	0.100
2.400	-14.153	0.100
2.500	-15.128	0.100
2.600	-20.102	0.100
2.700	-21.333	0.100
2.800	-21.156	0.100
2.900	-12.172	0.100
3.000	-9.397	0.100
3.100	-14.459	0.100
3.200	-13.881	0.100
3.300	-17.688	0.100
3.400	-17.084	0.100
3.500	-9.785	0.100
3.600	-10.048	0.100
3.700	-13.823	0.100
3.800	-19.335	0.100
3.900	-27.630	0.100
4.000	-26.011	0.100
4.100	-21.715	0.100
4.200	-10.327	0.100
4.300	-14.843	0.100
4.400	-14.470	0.100
4.500	-11.972	0.100
4.600	-22.764	0.100
4.700	-14.935	0.100
4.800	-15.373	0.100
4.900	-13.515	0.100
5.000	-19.195	0.100
5.100	-19.667	0.100
5.200	-8.938	0.100
5.300	-9.668	0.100
5.400	-4.618	0.100
5.500	-18.337	0.100
5.600	-19.004	0.100
5.700	-19.962	0.100
5.800	-26.011	0.100
5.900	-23.264	0.100
6.000	-13.050	0.100
6.100	-13.538	0.100
6.200	-11.952	0.100
6.300	-20.343	0.100
6.400	-26.467	0.100
6.500	-18.747	0.100
6.600	-12.110	0.100
6.700	-2.219	0.100
6.800	-8.293	0.100
6.900	-13.442	0.100
7.000	-23.769	0.100
7.100	-16.950	0.100
7.200	-17.825	0.100
7.300	-16.299	0.100
7.400	-15.440	0.100
7.500	-10.952	0.100
7.600	-14.207	0.100
7.700	-16.190	0.100
7.800	-16.141	0.100
7.900	-21.061	0.100
8.000	-20.685	0.100
8.100	-27.084	0.100
8.200	-16.923	0.100
8.300	-15.258	0.100
8.400	-13.173	0.100
8.500	-14.617	0.100
8.600	-16.708	0.100
8.700	-13.286	0.100
8.800	-8.386	0.100
8.900	-18.075	0.100
9.000	-16.244	0.100
9.100	-13.077	0.100
9.200	-12.524	0.100
9.300	-10.572	0.100
9.400	-18.911	0.100
9.500	-8.111	0.100
9.600	-9.867	0.100
9.700	-6.455	0.100
9.800	-14.690	0.100
9.900	-15.918	0.100
10.000	-11.122	0.100
10.100	-20.086	0.100
10.200	-16.627	0.100
10.300	-9.276	0.100
10.400	-26.779	0.100
10.500	-16.897	0.100
10.600	-14.821	0.100
10.700	-15.561	0.100
10.800	-12.154	0.100
10.900	-13.834	0.100
11.000	-6.701	0.100
11.100	-13.563	0.100
11.200	-12.723	0.100
11.300	-9.329	0.100
11.400	-19.648	0.100
11.500	-19.535	0.100
11.600	-14.067	0.100
11.700	-12.604	0.100
11.800	-23.177	0.100
11.900	-19.253	0.100
12.000	-13.900	0.100
12.100	-16.818	0.100
12.200	-7.605	0.100
12.300	-12.127	0.100
12.400	-14.504	0.100
12.500	-18.057	0.100
12.600	-14.623	0.100
12.700	-13.904	0.100
12.800	-31.996	0.100
12.900	-22.920	0.100
13.000	-9.755	0.100
13.100	-8.830	0.100
13.200	-14.624	0.100
13.300	-15.395	0.100
13.400	-15.366	0.100
13.500	-13.605	0.100
13.600	-16.727	0.100
13.700	-11.056	0.100
13.800	-21.168	0.100
13.900	-19.018	0.100
14.000	-13.827	0.100
14.100	-12.766	0.100
14.200	-23.832	0.100
14.300	-14.085	0.100
14.400	-4.538	0.100
14.500	-8.906	0.100
14.600	-12.259	0.100
14.700	-25.262	0.100
14.800	-18.211	0.100
14.900	-23.380	0.100
15.000	-12.928	0.100
15.100	-9.144	0.100
15.200	-16.303	0.100
15.300	-14.278	0.100
15.400	-10.912	0.100
15.500	-16.597	0.100
15.600	-15.558	0.100
15.700	-15.079	0.100
15.800	-10.909	0.100
15.900	-12.599	0.100
16.000	-20.806	0.100
16.100	-17.212	0.100
16.200	-23.968	0.100
16.300	-7.123	0.100
16.400	-18.634	0.100
16.500	-19.016	0.100
16.600	-16.436	0.100
16.700	-12.739	0.100
16.800	-21.069	0.100
16.900	-16.093	0.100
17.000	-17.516	0.100
17.100	-17.290	0.100
17.200	-16.665	0.100
17.300	-13.160	0.100
17.400	-19.208	0.100
17.500	-23.367	0.100
17.600	-22.284	0.100
17.700	-10.879	0.100
17.800	-17.700	0.100
17.900	-16.042	0.100
18.000	-14.845	0.100
18.100	-23.800	0.100
18.200	-25.460	0.100
18.300	-5.505	0.100
18.400	-5.916	0.100
18.500	-15.300	0.100
18.600	-12.301	0.100
18.700	-7.656	0.100
18.800	-19.609	0.100
18.900	-6.634	0.100
19.000	-17.393	0.100
19.100	-12.169	0.100
19.200	-12.942	0.100
19.300	-14.009	0.100
19.400	-25.260	0.100
19.500	-21.069	0.100
19.600	-14.274	0.100
19.700	-18.074	0.100
19.800	-10.508	0.100
19.900	-13.579	0.100
20.000	-12.593	0.100
20.100	-12.386	0.100
20.200	-14.034	0.100
20.300	-30.317	0.100
20.400	-20.519	0.100
20.500	-17.588	0.100
20.600	-14.394	0.100
20.700	-19.579	0.100
20.800	-18.332	0.100
20.900	-7.178	0.100
21.000	-14.222	0.100
21.100	-12.156	0.100
21.200	-16.090	0.100
21.300	-18.064	0.100
21.400	-15.634	0.100
21.500	-15.225	0.100
21.600	-12.239	0.100
21.700	-19.917	0.100
21.800	-11.069	0.100
21.900	-16.951	0.100
22.000	-5.363	0.100
22.100	-16.855	0.100
22.200	-9.201	0.100
22.300	-19.622	0.100
22.400	-15.999	0.100
22.500	-20.763	0.100
22.600	-11.614	0.100
22.700	-5.767	0.100
22.800	-15.981	0.100
22.900	-2.917	0.100
23.000	-11.764	0.100
23.100	-19.899	0.100
23.200	-14.339	0.100
23.300	-20.214	0.100
23.400	-9.300	0.100
23.500	-11.082	0.100
23.600	-17.274	0.100
23.700	-13.266	0.100
23.800	-20.211	0.100
23.900	-16.978	0.100
24.000	-18.840	0.100
24.100	-21.780	0.100
24.200	-16.216	0.100
24.300	-2.937	0.100
24.400	-23.698	0.100
24.500	-7.670	0.100
24.600	-6.886	0.100
24.700	-11.967	0.100
24.800	-9.225	0.100
24.900	-16.414	0.100
25.000	-21.765	0.100
25.100	-30.299	0.100
25.200	-15.911	0.100
25.300	-7.720	0.100
25.400	-11.681	0.100
25.500	-12.580	0.100
25.600	-11.581	0.100
25.700	-6.802	0.100
25.800	-11.826	0.100
25.900	-14.442	0.100
26.000	-14.577	0.100
26.100	-17.391	0.100
26.200	-20.416	0.100
26.300	-9.410	0.100
26.400	-9.961	0.100
26.500	-17.561	0.100
26.600	-21.930	0.100
26.700	-15.491	0.100
26.800	-14.532	0.100
26.900	-10.333	0.100
27.000	-18.967	0.100
27.100	-17.798	0.100
27.200	-17.456	0.100
27.300	-11.167	0.100
27.400	-18.048	0.100
27.500	-15.873	0.100
27.600	-11.479	0.100
27.700	-9.840	0.100
27.800	-12.160	0.100
27.900	-20.201	0.100
28.000	-22.194	0.100
28.100	-18.444	0.100
28.200	-14.595	0.100
28.300	-10.376	0.100
28.400	-9.135	0.100
28.500	-21.182	0.100
28.600	-18.378	0.100
28.700	-19.679	0.100
28.800	-16.537	0.100
28.900	-13.532	0.100
29.000	-10.558	0.100
29.100	-22.476	0.100
29.200	-16.912	0.100
29.300	-14.159	0.100
29.400	-12.629	0.100
29.500	-4.494	0.100
29.600	-14.126	0.100
29.700	-14.500	0.100
29.800	-8.818	0.100
29.900	-10.112	0.100
30.000	-9.359	0.100
30.100	-12.640	0.100
30.200	-1.535	0.100
30.300	-7.728	0.100
30.400	4.566	0.100
30.500	-3.650	0.100
30.600	0.866	0.100
30.700	-2.198	0.100
30.800	-5.733	0.100
30.900	-3.224	0.100
31.000	-4.617	0.100
31.100	8.893	0.100
31.200	10.309	0.100
31.300	-4.413	0.100
31.400	6.284	0.100
31.500	5.551	0.100
31.600	15.857	0.100
31.700	7.734	0.100
31.800	5.072	0.100
31.900	0.129	0.100
32.000	7.759	0.100
32.100	9.750	0.100
32.200	4.807	0.100
32.300	-0.736	0.100
32.400	1.744	0.100
32.500	9.229	0.100
32.600	18.900	0.100
32.700	5.519	0.100
32.800	12.758	0.100
32.900	2.730	0.100
33.000	3.739	0.100
33.100	6.656	0.100
33.200	4.301	0.100
33.300	13.703	0.100
33.400	-1.257	0.100
33.500	-2.147	0.100
33.600	7.562	0.100
33.700	6.234	0.100
33.800	20.668	0.100
33.900	0.317	0.100
34.000	8.414	0.100
34.100	8.705	0.100
34.200	14.946	0.100
34.300	13.563	0.100
34.400	9.050	0.100
34.500	12.417	0.100
34.600	5.873	0.100
34.700	3.586	0.100
34.800	7.459	0.100
34.900	3.112	0.100
35.000	8.693	0.100
35.100	-3.821	0.100
35.200	3.170	0.100
35.300	17.259	0.100
35.400	19.337	0.100
35.500	5.603	0.100
35.600	-3.132	0.100
35.700	3.271	0.100
35.800	1.675	0.100
35.900	-2.407	0.100
36.000	11.332	0.100
36.100	11.257	0.100
36.200	10.907	0.100
36.300	9.569	0.100
36.400	13.699	0.100
36.500	2.033	0.100
36.600	11.399	0.100
36.700	6.490	0.100
36.800	3.175	0.100
36.900	15.020	0.100
37.000	10.313	0.100
37.100	8.570	0.100
37.200	6.775	0.100
37.300	3.999	0.100
37.400	19.275	0.100
37.500	8.674	0.100
37.600	10.027	0.100
37.700	3.238	0.100
37.800	-2.644	0.100
37.900	3.631	0.100
38.000	5.831	0.100
38.100	10.197	0.100
38.200	8.932	0.100
38.300	9.754	0.100
38.400	12.090	0.100
38.500	1.128	0.100
38.600	10.341	0.100
38.700	17.571	0.100
38.800	16.843	0.100
38.900	15.078	0.100
39.000	11.664	0.100
39.100	4.646	0.100
39.200	17.767	0.100
39.300	8.250	0.100
39.400	7.404	0.100
39.500	19.555	0.100
39.600	12.079	0.100
39.700	13.256	0.100
39.800	2.826	0.100
39.900	12.054	0.100
40.000	18.734	0.100
40.100	20.652	0.100
40.200	17.025	0.100
40.300	7.094	0.100
40.400	27.780	0.100
40.500	16.792	0.100
40.600	21.190	0.100
40.700	16.878	0.100
40.800	13.962	0.100
40.900	19.326	0.100
41.000	11.259	0.100
41.100	3.836	0.100
41.200	4.209	0.100
41.300	11.983	0.100
41.400	24.748	0.100
41.500	18.333	0.100
41.600	17.697	0.100
41.700	20.827	0.100
41.800	10.958	0.100
41.900	15.246	0.100
42.000	15.980	0.100
42.100	14.956	0.100
42.200	13.295	0.100
42.300	21.076	0.100
42.400	19.051	0.100
42.500	15.680	0.100
42.600	10.394	0.100
42.700	22.907	0.100
42.800	21.794	0.100
42.900	14.780	0.100
43.000	16.204	0.100
43.100	18.821	0.100
43.200	19.111	0.100
43.300	26.304	0.100
43.400	24.300	0.100
43.500	19.300	0.100
43.600	22.726	0.100
43.700	25.011	0.100
43.800	17.891	0.100
43.900	21.789	0.100
44.000	18.768	0.100
44.100	23.361	0.100
44.200	26.737	0.100
44.300	16.099	0.100
44.400	28.824	0.100
44.500	29.405	0.100
44.600	19.624	0.100
44.700	26.786	0.100
44.800	21.953	0.100
44.900	20.298	0.100
45.000	19.791	0.100
45.100	16.561	0.100
45.200	17.110	0.100
45.300	22.202	0.100
45.400	20.522	0.100
45.500	18.472	0.100
45.600	24.067	0.100
45.700	18.247	0.100
45.800	17.000	0.100
45.900	22.305	0.100
46.000	21.710	0.100
46.100	26.014	0.100
46.200	27.157	0.100
46.300	21.867	0.100
46.400	29.323	0.100
46.500	31.914	0.100
46.600	31.396	0.100
46.700	24.845	0.100
46.800	32.163	0.100
46.900	19.052	0.100
47.000	24.599	0.100
47.100	26.197	0.100
47.200	20.323	0.100
47.300	17.562	0.100
47.400	18.718	0.100
47.500	18.503	0.100
47.600	30.453	0.100
47.700	17.417	0.100
47.800	16.148	0.100
47.900	22.291	0.100
48.000	36.783	0.100
48.100	30.198	0.100
48.200	23.298	0.100
48.300	21.654	0.100
48.400	14.593	0.100
48.500	28.823	0.100
48.600	25.201	0.100
48.700	37.851	0.100
48.800	49.667	0.100
48.900	28.931	0.100
49.000	29.860	0.100
49.100	28.204	0.100
49.200	27.818	0.100
49.300	35.397	0.100
49.400	31.385	0.100
49.500	22.975	0.100
49.600	30.345	0.100
49.700	18.766	0.100
49.800	26.084	0.100
49.900	22.565	0.100
50.000	28.075	0.100
50.100	19.073	0.100
50.200	24.757	0.100
50.300	27.580	0.100
50.400	34.860	0.100
50.500	31.510	0.100
50.600	33.784	0.100
50.700	17.220	0.100
50.800	26.523	0.100
50.900	25.176	0.100
51.000	31.582	0.100
51.100	35.356	0.100
51.200	39.826	0.100
51.300	31.619	0.100
51.400	28.120	0.100
51.500	26.529	0.100
51.600	28.461	0.100
51.700	27.119	0.100
51.800	36.397	0.100
51.900	33.310	0.100
52.000	29.611	0.100
52.100	38.802	0.100
52.200	28.745	0.100
52.300	30.993	0.100
52.400	32.068	0.100
52.500	13.223	0.100
52.600	17.000	0.100
52.700	26.574	0.100
52.800	36.846	0.100
52.900	37.180	0.100
53.000	37.245	0.100
53.100	27.976	0.100
53.200	26.843	0.100
53.300	30.499	0.100
53.400	22.779	0.100
53.500	35.677	0.100
53.600	45.250	0.100
53.700	30.925	0.100
53.800	35.499	0.100
53.900	31.847	0.100
54.000	36.533	0.100
54.100	19.217	0.100
54.200	26.812	0.100
54.300	27.474	0.100
54.400	26.528	0.100
54.500	37.037	0.100
54.600	30.162	0.100
54.700	28.936	0.100
54.800	32.733	0.100
54.900	43.505	0.100
55.000	34.617	0.100
55.100	32.151	0.100
55.200	27.001	0.100
55.300	32.799	0.100
55.400	42.450	0.100
55.500	36.733	0.100
55.600	35.202	0.100
55.700	34.855	0.100
55.800	32.838	0.100
55.900	28.842	0.100
56.000	28.937	0.100
56.100	29.423	0.100
56.200	25.311	0.100
56.300	43.579	0.100
56.400	20.291	0.100
56.500	32.162	0.100
56.600	41.998	0.100
56.700	38.510	0.100
56.800	38.224	0.100
56.900	29.182	0.100
57.000	27.503	0.100
57.100	32.940	0.100
57.200	35.408	0.100
57.300	38.462	0.100
57.400	35.680	0.100
57.500	35.587	0.100
57.600	37.450	0.100
57.700	33.245	0.100
57.800	49.138	0.100
57.900	38.555	0.100
58.000	32.040	0.100
58.100	29.561	0.100
58.200	43.518	0.100
58.300	39.530	0.100
58.400	39.974	0.100
58.500	35.491	0.100
58.600	31.663	0.100
58.700	47.959	0.100
58.800	36.754	0.100
58.900	37.807	0.100
59.000	38.290	0.100
59.100	39.985	0.100
59.200	35.031	0.100
59.300	26.917	0.100
59.400	32.364	0.100
59.500	35.856	0.100
59.600	38.355	0.100
59.700	31.166	0.100
59.800	31.065	0.100
59.900	29.246	0.100
60.000	36.969	0.100
60.100	34.964	0.100
60.200	37.353	0.100
60.300	32.736	0.100
60.400	26.578	0.100
60.500	41.156	0.100
60.600	42.316	0.100
60.700	34.864	0.100
60.800	39.629	0.100
60.900	29.223	0.100
61.000	36.294	0.100
61.100	43.011	0.100
61.200	29.560	0.100
61.300	49.044	0.100
61.400	42.587	0.100
61.500	36.512	0.100
61.600	38.255	0.100
61.700	37.011	0.100
61.800	33.566	0.100
61.900	33.634	0.100
62.000	39.313	0.100
62.100	34.299	0.100
62.200	37.165	0.100
62.300	35.117	0.100
62.400	29.585	0.100
62.500	35.313	0.100
62.600	46.605	0.100
62.700	40.541	0.100
62.800	34.809	0.100
62.900	24.518	0.100
63.000	35.504	0.100
63.100	35.023	0.100
63.200	33.504	0.100
63.300	32.684	0.100
63.400	44.350	0.100
63.500	32.323	0.100
63.600	40.774	0.100
63.700	26.614	0.100
63.800	36.779	0.100
63.900	38.454	0.100
64.000	40.022	0.100
64.100	31.907	0.100
64.200	37.319	0.100
64.300	40.754	0.100
64.400	40.449	0.100
64.500	33.571	0.100
64.600	29.079	0.100
64.700	25.930	0.100
64.800	23.411	0.100
64.900	31.774	0.100
65.000	39.494	0.100
65.100	40.314	0.100
65.200	37.115	0.100
65.300	38.538	0.100
65.400	36.351	0.100
65.500	38.083	0.100
65.600	40.715	0.100
65.700	29.013	0.100
65.800	37.324	0.100
65.900	36.668	0.100
66.000	26.783	0.100
66.100	36.942	0.100
66.200	32.660	0.100
66.300	41.704	0.100
66.400	47.413	0.100
66.500	37.563	0.100
66.600	43.898	0.100
66.700	30.313	0.100
66.800	22.797	0.100
66.900	41.128	0.100
67.000	43.014	0.100
67.100	35.860	0.100
67.200	49.120	0.100
67.300	29.776	0.100
67.400	22.250	0.100
67.500	37.661	0.100
67.600	40.172	0.100
67.700	38.435	0.100
67.800	22.713	0.100
67.900	30.944	0.100
68.000	25.751	0.100
68.100	43.303	0.100
68.200	45.238	0.100
68.300	36.727	0.100
68.400	46.611	0.100
68.500	36.872	0.100
68.600	41.795	0.100
68.700	29.555	0.100
68.800	33.807	0.100
68.900	34.280	0.100
69.000	32.272	0.100
69.100	34.288	0.100
69.200	38.870	0.100
69.300	31.095	0.100
69.400	36.755	0.100
69.500	37.036	0.100
69.600	32.780	0.100
69.700	39.907	0.100
69.800	35.094	0.100
69.900	32.247	0.100
70.000	40.558	0.100
70.100	24.435	0.100
70.200	42.007	0.100
70.300	40.099	0.100
70.400	42.487	0.100
70.500	35.598	0.100
70.600	41.602	0.100
70.700	34.930	0.100
70.800	22.118	0.100
70.900	33.678	0.100
71.000	27.001	0.100
71.100	36.121	0.100
71.200	41.686	0.100
71.300	31.584	0.100
71.400	32.522	0.100
71.500	35.451	0.100
71.600	23.710	0.100
71.700	27.412	0.100
71.800	27.501	0.100
71.900	33.081	0.100
72.000	39.392	0.100
72.100	47.212	0.100
72.200	53.386	0.100
72.300	44.293	0.100
72.400	34.007	0.100
72.500	38.970	0.100
72.600	34.561	0.100
72.700	38.603	0.100
72.800	33.613	0.100
72.900	32.534	0.100
73.000	32.104	0.100
73.100	37.570	0.100
73.200	41.501	0.100
73.300	45.901	0.100
73.400	28.525	0.100
73.500	40.404	0.100
73.600	45.405	0.100
73.700	38.798	0.100
73.800	40.244	0.100
73.900	38.821	0.100
74.000	40.201	0.100
74.100	31.534	0.100
74.200	41.086	0.100
74.300	37.595	0.100
74.400	35.765	0.100
74.500	27.896	0.100
74.600	28.988	0.100
74.700	35.480	0.100
74.800	36.995	0.100
74.900	36.791	0.100
75.000	32.732	0.100
75.100	44.992	0.100
75.200	41.275	0.100
75.300	32.768	0.100
75.400	34.973	0.100
75.500	35.821	0.100
75.600	29.580	0.100
75.700	41.459	0.100
75.800	35.256	0.100
75.900	32.768	0.100
76.000	42.513	0.100
76.100	38.773	0.100
76.200	30.741	0.100
76.300	35.029	0.100
76.400	37.520	0.100
76.500	46.704	0.100
76.600	26.857	0.100
76.700	28.097	0.100
76.800	30.611	0.100
76.900	34.973	0.100
77.000	39.995	0.100
77.100	30.378	0.100
77.200	35.127	0.100
77.300	42.410	0.100
77.400	41.366	0.100
77.500	30.085	0.100
77.600	42.596	0.100
77.700	37.774	0.100
77.800	35.766	0.100
77.900	36.545	0.100
78.000	34.645	0.100
78.100	32.979	0.100
78.200	29.300	0.100
78.300	37.434	0.100
78.400	45.345	0.100
78.500	43.843	0.100
78.600	28.283	0.100
78.700	40.442	0.100
78.800	36.951	0.100
78.900	32.897	0.100
79.000	28.857	0.100
79.100	35.136	0.100
79.200	33.905	0.100
79.300	39.102	0.100
79.400	35.986	0.100
79.500	36.574	0.100
79.600	36.060	0.100
79.700	30.021	0.100
79.800	35.220	0.100
79.900	32.703	0.100
80.000	37.678	0.100
80.100	30.817	0.100
80.200	38.026	0.100
80.300	35.034	0.100
80.400	33.138	0.100
80.500	35.603	0.100
80.600	31.983	0.100
80.700	31.364	0.100
80.800	46.929	0.100
80.900	47.248	0.100
81.000	35.991	0.100
81.100	36.505	0.100
81.200	31.614	0.100
81.300	36.228	0.100
81.400	40.618	0.100
81.500	40.934	0.100
81.600	43.026	0.100
81.700	42.666	0.100
81.800	33.907	0.100
81.900	27.537	0.100
82.000	32.994	0.100
82.100	25.566	0.100
82.200	32.878	0.100
82.300	42.961	0.100
82.400	38.536	0.100
82.500	38.414	0.100
82.600	40.494	0.100
82.700	39.448	0.100
82.800	24.354	0.100
82.900	40.524	0.100
83.000	33.379	0.100
83.100	32.422	0.100
83.200	43.075	0.100
83.300	32.402	0.100
83.400	32.090	0.100
83.500	46.858	0.100
83.600	46.780	0.100
83.700	36.272	0.100
83.800	34.571	0.100
83.900	29.340	0.100
84.000	36.860	0.100
84.100	40.819	0.100
84.200	37.569	0.100
84.300	27.382	0.100
84.400	22.912	0.100
84.500	30.333	0.100
84.600	46.529	0.100
84.700	45.146	0.100
84.800	42.131	0.100
84.900	34.951	0.100
85.000	29.721	0.100
85.100	43.766	0.100
85.200	32.272	0.100
85.300	26.244	0.100
85.400	40.432	0.100
85.500	33.251	0.100
85.600	34.496	0.100
85.700	37.325	0.100
85.800	41.729	0.100
85.900	34.177	0.100
86.000	36.227	0.100
86.100	32.705	0.100
86.200	39.517	0.100
86.300	36.281	0.100
86.400	38.481	0.100
86.500	43.538	0.100
86.600	32.818	0.100
86.700	37.862	0.100
86.800	37.501	0.100
86.900	36.014	0.100
87.000	37.192	0.100
87.100	45.187	0.100
87.200	41.504	0.100
87.300	39.540	0.100
87.400	30.607	0.100
87.500	28.235	0.100
87.600	33.404	0.100
87.700	31.609	0.100
87.800	33.958	0.100
87.900	40.097	0.100
88.000	42.271	0.100
88.100	52.144	0.100
88.200	47.380	0.100
88.300	30.403	0.100
88.400	42.196	0.100
88.500	31.687	0.100
88.600	35.383	0.100
88.700	37.898	0.100
88.800	37.106	0.100
88.900	35.084	0.100
89.000	46.105	0.100
89.100	40.665	0.100
89.200	39.313	0.100
89.300	29.136	0.100
89.400	33.083	0.100
89.500	30.982	0.100
89.600	29.182	0.100
89.700	30.046	0.100
89.800	34.737	0.100
89.900	34.990	0.100
90.000	31.862	0.100
90.100	26.959	0.100
90.200	26.793	0.100
90.300	30.777	0.100
90.400	27.061	0.100
90.500	26.069	0.100
90.600	30.918	0.100
90.700	12.000	0.100
90.800	18.019	0.100
90.900	22.387	0.100
91.000	27.434	0.100
91.100	15.062	0.100
91.200	10.856	0.100
91.300	17.061	0.100
91.400	19.507	0.100
91.500	7.806	0.100
91.600	11.764	0.100
91.700	10.113	0.100
91.800	10.105	0.100
91.900	11.082	0.100
92.000	7.597	0.100
92.100	8.144	0.100
92.200	-4.054	0.100
92.300	3.750	0.100
92.400	14.084	0.100
92.500	-8.962	0.100
92.600	9.145	0.100
92.700	4.992	0.100
92.800	-1.794	0.100
92.900	3.240	0.100
93.000	-1.372	0.100
93.100	-1.683	0.100
93.200	8.167	0.100
93.300	8.103	0.100
93.400	4.117	0.100
93.500	-3.883	0.100
93.600	-6.603	0.100
93.700	4.711	0.100
93.800	-1.609	0.100
93.900	2.468	0.100
94.000	2.255	0.100
94.100	8.336	0.100
94.200	-0.789	0.100
94.300	-2.114	0.100
94.400	-2.644	0.100
94.500	2.501	0.100
94.600	-7.168	0.100
94.700	1.491	0.100
