time /s	I /nA	E /V
0.100	11.213	0.100
0.200	-6.888	0.100
0.300	-0.154	0.100
0.400	7.487	0.100
0.500	5.683	0.100
0.600	9.888	0.100
0.700	-0.836	0.100
0.800	-0.403	0.100
0.900	6.472	0.100
1.000	-0.897	0.100
1.100	12.485	0.100
1.200	-0.943	0.100
1.300	4.852	0.100
1.400	-3.060	0.100
1.500	16.660	0.100
1.600	-9.507	0.100
1.700	-5.706	0.100
1.800	7.489	0.100
1.900	15.288	0.100
2.000	15.632	0.100
2.100	-7.003	0.100
2.200	15.612	0.100
2.300	-2.456	0.100
2.400	7.388	0.100
2.500	12.015	0.100
2.600	1.309	0.100
2.700	1.119	0.100
2.800	1.548	0.100
2.900	15.626	0.100
3.000	-0.573	0.100
3.100	0.382	0.100
3.200	3.145	0.100
3.300	6.027	0.100
3.400	7.430	0.100
3.500	0.846	0.100
3.600	15.391	0.100
3.700	8.763	0.100
3.800	-2.706	0.100
3.900	2.129	0.100
4.000	5.273	0.100
4.100	3.569	0.100
4.200	8.274	0.100
4.300	-6.499	0.100
4.400	2.764	0.100
4.500	10.935	0.100
4.600	4.483	0.100
4.700	5.412	0.100
4.800	7.627	0.100
4.900	8.660	0.100
5.000	-8.198	0.100
5.100	0.811	0.100
5.200	5.466	0.100
5.300	21.261	0.100
5.400	1.398	0.100
5.500	14.163	0.100
5.600	13.688	0.100
5.700	-0.747	0.100
5.800	5.868	0.100
5.900	-1.605	0.100
6.000	3.235	0.100
6.100	6.421	0.100
6.200	8.837	0.100
6.300	12.827	0.100
6.400	-8.163	0.100
6.500	5.113	0.100
6.600	13.252	0.100
6.700	20.183	0.100
6.800	0.420	0.100
6.900	6.588	0.100
7.000	2.683	0.100
7.100	20.216	0.100
7.200	-1.029	0.100
7.300	-15.083	0.100
7.400	0.576	0.100
7.500	5.741	0.100
7.600	19.977	0.100
7.700	5.489	0.100
7.800	1.591	0.100
7.900	0.375	0.100
8.000	1.188	0.100
8.100	-1.575	0.100
8.200	10.681	0.100
8.300	5.627	0.100
8.400	7.160	0.100
8.500	10.202	0.100
8.600	-9.689	0.100
8.700	5.758	0.100
8.800	9.403	0.100
8.900	0.827	0.100
9.000	0.160	0.100
9.100	16.580	0.100
9.200	7.804	0.100
9.300	-11.463	0.100
9.400	12.641	0.100
9.500	4.734	0.100
9.600	12.327	0.100
9.700	-0.426	0.100
9.800	11.389	0.100
9.900	-8.019	0.100
10.000	13.082	0.100
10.100	-7.819	0.100
10.200	4.896	0.100
10.300	5.999	0.100
10.400	-2.691	0.100
10.500	5.697	0.100
10.600	5.999	0.100
10.700	-1.113	0.100
10.800	7.730	0.100
10.900	4.611	0.100
11.000	20.904	0.100
11.100	19.921	0.100
11.200	1.574	0.100
11.300	-18.836	0.100
11.400	9.261	0.100
11.500	14.990	0.100
11.600	2.479	0.100
11.700	-5.233	0.100
11.800	-6.764	0.100
11.900	8.945	0.100
12.000	10.030	0.100
12.100	3.694	0.100
12.200	-8.922	0.100
12.300	12.013	0.100
12.400	5.628	0.100
12.500	-17.444	0.100
12.600	13.640	0.100
12.700	-2.434	0.100
12.800	7.368	0.100
12.900	15.407	0.100
13.000	3.450	0.100
13.100	-6.692	0.100
13.200	6.748	0.100
13.300	1.192	0.100
13.400	10.034	0.100
13.500	3.913	0.100
13.600	0.268	0.100
13.700	14.243	0.100
13.800	7.096	0.100
13.900	1.405	0.100
14.000	11.334	0.100
14.100	3.831	0.100
14.200	-9.264	0.100
14.300	6.367	0.100
14.400	4.660	0.100
14.500	5.173	0.100
14.600	-4.344	0.100
14.700	4.260	0.100
14.800	5.531	0.100
14.900	4.621	0.100
15.000	3.476	0.100
15.100	-3.140	0.100
15.200	6.275	0.100
15.300	0.319	0.100
15.400	-9.060	0.100
15.500	-0.278	0.100
15.600	3.246	0.100
15.700	11.515	0.100
15.800	24.491	0.100
15.900	3.658	0.100
16.000	10.455	0.100
16.100	-3.791	0.100
16.200	15.508	0.100
16.300	10.115	0.100
16.400	0.339	0.100
16.500	-4.860	0.100
16.600	11.340	0.100
16.700	-0.924	0.100
16.800	5.374	0.100
16.900	11.095	0.100
17.000	-4.683	0.100
17.100	10.091	0.100
17.200	4.753	0.100
17.300	5.275	0.100
17.400	3.066	0.100
17.500	6.799	0.100
17.600	2.808	0.100
17.700	-5.973	0.100
17.800	-1.637	0.100
17.900	-0.062	0.100
18.000	-0.605	0.100
18.100	0.724	0.100
18.200	2.846	0.100
18.300	3.952	0.100
18.400	3.855	0.100
18.500	6.968	0.100
18.600	5.341	0.100
18.700	7.595	0.100
18.800	15.925	0.100
18.900	-1.672	0.100
19.000	9.774	0.100
19.100	15.178	0.100
19.200	10.634	0.100
19.300	7.327	0.100
19.400	9.757	0.100
19.500	-3.571	0.100
19.600	10.447	0.100
19.700	0.954	0.100
19.800	7.770	0.100
19.900	-5.202	0.100
20.000	-11.512	0.100
20.100	7.603	0.100
20.200	-12.712	0.100
20.300	14.432	0.100
20.400	-10.092	0.100
20.500	-11.589	0.100
20.600	2.015	0.100
20.700	-0.341	0.100
20.800	14.644	0.100
20.900	6.185	0.100
21.000	6.959	0.100
21.100	10.675	0.100
21.200	9.461	0.100
21.300	-2.854	0.100
21.400	3.614	0.100
21.500	13.777	0.100
21.600	3.216	0.100
21.700	-6.421	0.100
21.800	13.000	0.100
21.900	4.885	0.100
22.000	3.548	0.100
22.100	-1.665	0.100
22.200	1.566	0.100
22.300	4.425	0.100
22.400	7.093	0.100
22.500	4.712	0.100
22.600	0.150	0.100
22.700	10.432	0.100
22.800	7.295	0.100
22.900	5.870	0.100
23.000	5.284	0.100
23.100	10.826	0.100
23.200	13.284	0.100
23.300	11.134	0.100
23.400	8.068	0.100
23.500	-16.508	0.100
23.600	4.761	0.100
23.700	-8.057	0.100
23.800	17.683	0.100
23.900	21.343	0.100
24.000	-4.739	0.100
24.100	-10.167	0.100
24.200	7.563	0.100
24.300	-12.406	0.100
24.400	2.115	0.100
24.500	-10.334	0.100
24.600	12.467	0.100
24.700	7.015	0.100
24.800	9.834	0.100
24.900	1.744	0.100
25.000	4.719	0.100
25.100	11.731	0.100
25.200	5.446	0.100
25.300	3.165	0.100
25.400	6.558	0.100
25.500	8.693	0.100
25.600	-13.889	0.100
25.700	9.746	0.100
25.800	-6.133	0.100
25.900	1.304	0.100
26.000	4.049	0.100
26.100	-7.461	0.100
26.200	-4.642	0.100
26.300	-12.198	0.100
26.400	7.478	0.100
26.500	4.732	0.100
26.600	8.022	0.100
26.700	7.775	0.100
26.800	2.027	0.100
26.900	10.227	0.100
27.000	4.569	0.100
27.100	-9.625	0.100
27.200	10.073	0.100
27.300	1.252	0.100
27.400	0.059	0.100
27.500	12.615	0.100
27.600	5.390	0.100
27.700	3.688	0.100
27.800	-1.711	0.100
27.900	-1.551	0.100
28.000	0.742	0.100
28.100	8.931	0.100
28.200	4.193	0.100
28.300	5.442	0.100
28.400	9.964	0.100
28.500	1.653	0.100
28.600	-1.349	0.100
28.700	-4.431	0.100
28.800	-0.209	0.100
28.900	0.800	0.100
29.000	11.125	0.100
29.100	13.152	0.100
29.200	-2.513	0.100
29.300	1.591	0.100
29.400	10.500	0.100
29.500	2.013	0.100
29.600	0.511	0.100
29.700	7.090	0.100
29.800	10.110	0.100
29.900	-8.884	0.100
30.000	7.099	0.100
30.100	3.230	0.100
30.200	18.243	0.100
30.300	22.580	0.100
30.400	10.504	0.100
30.500	8.689	0.100
30.600	6.832	0.100
30.700	18.443	0.100
30.800	2.832	0.100
30.900	13.555	0.100
31.000	19.464	0.100
31.100	24.045	0.100
31.200	-0.488	0.100
31.300	10.515	0.100
31.400	21.290	0.100
31.500	23.533	0.100
31.600	14.047	0.100
31.700	35.090	0.100
31.800	14.387	0.100
31.900	23.281	0.100
32.000	23.888	0.100
32.100	19.756	0.100
32.200	16.270	0.100
32.300	20.721	0.100
32.400	24.427	0.100
32.500	33.609	0.100
32.600	25.875	0.100
32.700	13.888	0.100
32.800	29.754	0.100
32.900	17.524	0.100
33.000	17.250	0.100
33.100	26.405	0.100
33.200	12.096	0.100
33.300	23.713	0.100
33.400	24.180	0.100
33.500	27.717	0.100
33.600	35.097	0.100
33.700	33.041	0.100
33.800	17.482	0.100
33.900	36.334	0.100
34.000	32.042	0.100
34.100	0.498	0.100
34.200	22.621	0.100
34.300	23.539	0.100
34.400	24.828	0.100
34.500	17.864	0.100
34.600	49.336	0.100
34.700	29.970	0.100
34.800	43.430	0.100
34.900	34.726	0.100
35.000	23.078	0.100
35.100	22.298	0.100
35.200	51.506	0.100
35.300	34.893	0.100
35.400	28.147	0.100
35.500	25.635	0.100
35.600	39.110	0.100
35.700	31.877	0.100
35.800	38.341	0.100
35.900	37.329	0.100
36.000	36.149	0.100
36.100	37.153	0.100
36.200	36.307	0.100
36.300	36.234	0.100
36.400	56.531	0.100
36.500	32.977	0.100
36.600	35.441	0.100
36.700	41.548	0.100
36.800	50.445	0.100
36.900	24.306	0.100
37.000	43.744	0.100
37.100	45.082	0.100
37.200	42.048	0.100
37.300	41.988	0.100
37.400	44.618	0.100
37.500	35.677	0.100
37.600	37.068	0.100
37.700	34.904	0.100
37.800	43.428	0.100
37.900	42.035	0.100
38.000	41.384	0.100
38.100	48.970	0.100
38.200	49.591	0.100
38.300	26.952	0.100
38.400	21.608	0.100
38.500	60.666	0.100
38.600	47.842	0.100
38.700	31.610	0.100
38.800	35.496	0.100
38.900	49.852	0.100
39.000	39.309	0.100
39.100	55.980	0.100
39.200	36.451	0.100
39.300	37.617	0.100
39.400	46.580	0.100
39.500	33.820	0.100
39.600	41.029	0.100
39.700	42.851	0.100
39.800	23.714	0.100
39.900	36.990	0.100
40.000	41.113	0.100
40.100	35.769	0.100
40.200	29.931	0.100
40.300	45.565	0.100
40.400	44.880	0.100
40.500	43.488	0.100
40.600	45.413	0.100
40.700	53.426	0.100
40.800	48.482	0.100
40.900	40.749	0.100
41.000	37.497	0.100
41.100	45.346	0.100
41.200	33.200	0.100
41.300	58.509	0.100
41.400	35.873	0.100
41.500	32.771	0.100
41.600	29.011	0.100
41.700	30.004	0.100
41.800	24.325	0.100
41.900	44.152	0.100
42.000	35.010	0.100
42.100	47.685	0.100
42.200	23.147	0.100
42.300	44.053	0.100
42.400	27.560	0.100
42.500	20.098	0.100
42.600	35.164	0.100
42.700	37.869	0.100
42.800	25.876	0.100
42.900	36.761	0.100
43.000	37.153	0.100
43.100	26.255	0.100
43.200	31.781	0.100
43.300	32.154	0.100
43.400	30.659	0.100
43.500	31.720	0.100
43.600	26.715	0.100
43.700	31.632	0.100
43.800	25.930	0.100
43.900	43.081	0.100
44.000	39.698	0.100
44.100	25.871	0.100
44.200	17.273	0.100
44.300	32.892	0.100
44.400	15.753	0.100
44.500	34.981	0.100
44.600	19.331	0.100
44.700	20.045	0.100
44.800	24.446	0.100
44.900	30.779	0.100
45.000	30.309	0.100
45.100	23.822	0.100
45.200	17.646	0.100
45.300	24.141	0.100
45.400	31.329	0.100
45.500	31.860	0.100
45.600	25.864	0.100
45.700	16.270	0.100
45.800	17.944	0.100
45.900	25.117	0.100
46.000	14.513	0.100
46.100	7.821	0.100
46.200	20.325	0.100
46.300	24.108	0.100
46.400	13.442	0.100
46.500	22.114	0.100
46.600	2.751	0.100
46.700	27.075	0.100
46.800	17.978	0.100
46.900	7.334	0.100
47.000	22.040	0.100
47.100	16.061	0.100
47.200	25.455	0.100
47.300	-6.693	0.100
47.400	25.508	0.100
47.500	13.503	0.100
47.600	9.966	0.100
47.700	15.768	0.100
47.800	11.357	0.100
47.900	9.023	0.100
48.000	5.797	0.100
48.100	21.909	0.100
48.200	23.923	0.100
48.300	5.953	0.100
48.400	15.175	0.100
48.500	20.853	0.100
48.600	21.508	0.100
48.700	18.332	0.100
48.800	13.479	0.100
48.900	12.193	0.100
49.000	10.889	0.100
49.100	16.353	0.100
49.200	15.360	0.100
49.300	26.662	0.100
49.400	23.715	0.100
49.500	13.577	0.100
49.600	15.171	0.100
49.700	15.792	0.100
49.800	9.988	0.100
49.900	-0.607	0.100
50.000	15.368	0.100
50.100	-3.970	0.100
50.200	27.887	0.100
50.300	11.909	0.100
50.400	14.121	0.100
50.500	23.740	0.100
50.600	5.955	0.100
50.700	0.592	0.100
50.800	12.067	0.100
50.900	17.076	0.100
51.000	5.682	0.100
51.100	24.317	0.100
51.200	10.315	0.100
51.300	12.912	0.100
51.400	16.659	0.100
51.500	14.582	0.100
51.600	-8.188	0.100
51.700	23.353	0.100
51.800	14.619	0.100
51.900	13.132	0.100
52.000	17.273	0.100
52.100	13.574	0.100
52.200	20.661	0.100
52.300	9.585	0.100
52.400	6.328	0.100
52.500	8.760	0.100
52.600	30.229	0.100
52.700	6.854	0.100
52.800	10.069	0.100
52.900	14.274	0.100
53.000	9.292	0.100
53.100	8.597	0.100
53.200	16.860	0.100
53.300	10.794	0.100
53.400	17.235	0.100
53.500	9.933	0.100
53.600	19.441	0.100
53.700	15.988	0.100
53.800	7.891	0.100
53.900	6.750	0.100
54.000	15.581	0.100
54.100	4.769	0.100
54.200	12.614	0.100
54.300	17.003	0.100
54.400	12.200	0.100
54.500	4.631	0.100
54.600	8.728	0.100
54.700	12.808	0.100
54.800	12.122	0.100
54.900	10.732	0.100
55.000	10.321	0.100
55.100	8.193	0.100
55.200	19.499	0.100
55.300	23.368	0.100
55.400	12.598	0.100
55.500	12.671	0.100
55.600	9.126	0.100
55.700	19.010	0.100
55.800	8.874	0.100
55.900	4.350	0.100
56.000	7.682	0.100
56.100	19.131	0.100
56.200	13.346	0.100
56.300	14.851	0.100
56.400	4.251	0.100
56.500	18.230	0.100
56.600	22.225	0.100
56.700	20.848	0.100
56.800	15.213	0.100
56.900	0.926	0.100
57.000	21.020	0.100
57.100	19.326	0.100
57.200	12.111	0.100
57.300	17.521	0.100
57.400	11.871	0.100
57.500	13.795	0.100
57.600	17.932	0.100
57.700	28.262	0.100
57.800	17.284	0.100
57.900	14.012	0.100
58.000	6.345	0.100
58.100	9.472	0.100
58.200	14.211	0.100
58.300	10.826	0.100
58.400	27.706	0.100
58.500	18.321	0.100
58.600	11.407	0.100
58.700	34.552	0.100
58.800	6.652	0.100
58.900	12.343	0.100
59.000	10.396	0.100
59.100	11.127	0.100
59.200	27.716	0.100
59.300	23.005	0.100
59.400	13.435	0.100
59.500	30.901	0.100
59.600	13.441	0.100
59.700	15.455	0.100
59.800	14.217	0.099
59.900	26.110	0.100
60.000	9.074	0.100
60.100	13.475	0.100
60.200	8.759	0.100
60.300	2.774	0.099
60.400	19.836	0.100
60.500	24.737	0.100
60.600	-2.399	0.100
60.700	16.969	0.099
60.800	18.854	0.100
60.900	20.353	0.100
61.000	8.930	0.099
61.100	15.846	0.100
61.200	22.924	0.099
61.300	16.974	0.100
61.400	2.794	0.099
61.500	9.957	0.099
61.600	12.590	0.099
61.700	3.271	0.100
61.800	22.161	0.100
61.900	17.747	0.099
62.000	21.652	0.099
62.100	25.195	0.099
62.200	22.498	0.099
62.300	14.623	0.099
62.400	17.664	0.099
62.500	8.144	0.099
62.600	13.277	0.099
62.700	10.192	0.099
62.800	14.238	0.099
62.900	19.758	0.099
63.000	5.839	0.099
63.100	11.377	0.099
63.200	8.711	0.099
63.300	18.050	0.099
63.400	29.708	0.099
63.500	19.652	0.099
63.600	13.070	0.099
63.700	7.749	0.099
63.800	7.086	0.099
63.900	20.704	0.099
64.000	26.003	0.099
64.100	15.459	0.099
64.200	21.172	0.099
64.300	10.083	0.099
64.400	11.543	0.099
64.500	18.992	0.099
64.600	15.490	0.099
64.700	16.690	0.099
64.800	16.813	0.099
64.900	15.762	0.099
65.000	0.874	0.099
65.100	13.211	0.099
65.200	20.623	0.099
65.300	29.665	0.099
65.400	21.270	0.099
65.500	32.402	0.099
65.600	18.050	0.099
65.700	9.211	0.099
65.800	23.360	0.099
65.900	6.046	0.099
66.000	-6.173	0.099
66.100	15.949	0.099
66.200	18.559	0.099
66.300	20.635	0.099
66.400	17.016	0.099
66.500	2.766	0.099
66.600	21.182	0.099
66.700	11.719	0.099
66.800	17.219	0.099
66.900	18.883	0.099
67.000	23.065	0.099
67.100	10.434	0.099
67.200	-5.013	0.099
67.300	14.782	0.099
67.400	13.834	0.099
67.500	23.325	0.099
67.600	15.468	0.099
67.700	14.395	0.099
67.800	21.683	0.099
67.900	9.448	0.099
68.000	27.250	0.099
68.100	5.017	0.099
68.200	4.788	0.099
68.300	14.526	0.099
68.400	11.164	0.099
68.500	20.633	0.099
68.600	0.248	0.099
68.700	32.850	0.099
68.800	7.417	0.099
68.900	24.845	0.099
69.000	5.650	0.099
69.100	9.907	0.099
69.200	12.929	0.099
69.300	23.247	0.099
69.400	14.083	0.099
69.500	12.130	0.099
69.600	13.492	0.099
69.700	-11.193	0.099
69.800	27.785	0.099
69.900	23.662	0.099
70.000	17.386	0.099
70.100	-0.036	0.099
70.200	16.307	0.099
70.300	27.152	0.099
70.400	9.702	0.099
70.500	16.572	0.099
70.600	10.045	0.099
70.700	11.881	0.099
70.800	28.987	0.099
70.900	5.087	0.099
71.000	8.359	0.099
71.100	27.397	0.099
71.200	17.838	0.099
71.300	13.614	0.099
71.400	18.955	0.099
71.500	13.136	0.099
71.600	21.354	0.099
71.700	18.272	0.099
71.800	8.767	0.099
71.900	1.110	0.099
72.000	16.597	0.099
72.100	15.557	0.099
72.200	16.280	0.099
72.300	12.863	0.099
72.400	17.902	0.099
72.500	8.842	0.099
72.600	16.207	0.099
72.700	6.771	0.099
72.800	18.086	0.099
72.900	12.392	0.099
73.000	17.531	0.099
73.100	11.016	0.099
73.200	15.222	0.099
73.300	-0.140	0.099
73.400	11.832	0.099
73.500	29.828	0.099
73.600	13.668	0.099
73.700	19.541	0.099
73.800	18.567	0.099
73.900	-1.011	0.099
74.000	29.458	0.099
74.100	6.815	0.099
74.200	1.593	0.099
74.300	13.757	0.099
74.400	17.279	0.099
74.500	14.186	0.099
74.600	-21.037	0.099
74.700	26.938	0.099
74.800	12.212	0.099
74.900	13.922	0.099
75.000	23.353	0.099
75.100	8.697	0.099
75.200	26.113	0.099
75.300	12.068	0.099
75.400	12.732	0.099
75.500	21.531	0.099
75.600	12.677	0.099
75.700	20.345	0.099
75.800	10.670	0.099
75.900	15.161	0.099
76.000	20.864	0.099
76.100	17.577	0.099
76.200	10.916	0.099
76.300	13.970	0.099
76.400	22.893	0.099
76.500	16.052	0.099
76.600	21.863	0.099
76.700	19.328	0.099
76.800	4.811	0.099
76.900	28.305	0.099
77.000	9.881	0.099
77.100	3.391	0.099
77.200	-1.113	0.099
77.300	17.691	0.099
77.400	5.191	0.099
77.500	22.694	0.099
77.600	27.792	0.099
77.700	23.433	0.099
77.800	-0.608	0.099
77.900	13.309	0.099
78.000	27.735	0.099
78.100	25.592	0.099
78.200	15.109	0.099
78.300	11.545	0.099
78.400	10.513	0.099
78.500	15.833	0.099
78.600	15.860	0.099
78.700	8.429	0.099
78.800	12.163	0.099
78.900	26.693	0.099
79.000	27.514	0.099
79.100	13.923	0.099
79.200	18.918	0.099
79.300	11.708	0.099
79.400	9.709	0.099
79.500	24.121	0.099
79.600	19.124	0.099
79.700	22.750	0.099
79.800	18.999	0.099
79.900	23.112	0.099
80.000	16.578	0.099
80.100	25.117	0.099
80.200	8.666	0.099
80.300	16.845	0.099
80.400	18.942	0.099
80.500	4.720	0.099
80.600	26.699	0.099
80.700	32.356	0.099
80.800	13.947	0.099
80.900	28.593	0.099
81.000	14.782	0.099
81.100	10.505	0.099
81.200	16.907	0.099
81.300	29.726	0.099
81.400	42.319	0.099
81.500	15.282	0.099
81.600	23.707	0.099
81.700	21.702	0.099
81.800	10.553	0.099
81.900	27.084	0.099
82.000	8.611	0.099
82.100	17.007	0.099
82.200	10.510	0.100
82.300	17.897	0.099
82.400	17.714	0.099
82.500	10.592	0.099
82.600	16.328	0.099
82.700	-1.223	0.099
82.800	27.632	0.100
82.900	29.356	0.100
83.000	26.125	0.099
83.100	18.052	0.099
83.200	14.598	0.099
83.300	21.807	0.099
83.400	16.961	0.099
83.500	17.097	0.099
83.600	33.678	0.099
83.700	7.980	0.099
83.800	3.615	0.099
83.900	26.423	0.099
84.000	20.714	0.099
84.100	11.667	0.099
84.200	12.142	0.099
84.300	19.262	0.099
84.400	10.389	0.099
84.500	14.596	0.099
84.600	14.396	0.099
84.700	15.614	0.099
84.800	19.366	0.099
84.900	20.077	0.099
85.000	10.382	0.099
85.100	25.021	0.099
85.200	4.088	0.099
85.300	14.989	0.099
85.400	19.968	0.099
85.500	20.626	0.099
85.600	32.043	0.099
85.700	7.541	0.099
85.800	26.249	0.099
85.900	24.796	0.099
86.000	21.886	0.099
86.100	23.178	0.099
86.200	22.179	0.099
86.300	19.704	0.099
86.400	18.850	0.099
86.500	16.692	0.099
86.600	7.201	0.099
86.700	11.094	0.099
86.800	17.097	0.099
86.900	16.307	0.099
87.000	8.787	0.099
87.100	5.213	0.099
87.200	17.953	0.099
87.300	9.280	0.099
87.400	6.167	0.099
87.500	11.897	0.099
87.600	22.921	0.099
87.700	29.526	0.099
87.800	19.679	0.099
87.900	3.907	0.099
88.000	26.005	0.099
88.100	25.016	0.099
88.200	16.980	0.099
88.300	24.007	0.099
88.400	26.109	0.099
88.500	16.415	0.099
88.600	38.762	0.099
88.700	7.141	0.099
88.800	16.560	0.099
88.900	16.172	0.099
89.000	9.483	0.099
89.100	16.858	0.099
89.200	22.767	0.099
89.300	22.658	0.099
89.400	13.558	0.099
89.500	11.364	0.099
89.600	20.573	0.099
89.700	18.721	0.099
89.800	9.614	0.099
89.900	7.288	0.099
90.000	16.368	0.099
90.100	18.549	0.099
90.200	26.598	0.099
90.300	6.071	0.099
90.400	24.720	0.099
90.500	20.977	0.099
90.600	18.462	0.099
90.700	4.241	0.099
90.800	22.355	0.099
90.900	7.041	0.099
91.000	-3.655	0.099
91.100	-8.235	0.099
91.200	0.034	0.099
91.300	1.680	0.099
91.400	4.773	0.099
91.500	-23.931	0.099
91.600	-6.316	0.099
91.700	0.727	0.099
91.800	-18.973	0.099
91.900	-12.662	0.099
92.000	-20.027	0.099
92.100	-11.770	0.099
92.200	-32.526	0.099
92.300	-17.285	0.099
92.400	-26.140	0.099
92.500	-23.935	0.099
92.600	-15.861	0.099
92.700	-28.520	0.099
92.800	-9.515	0.099
92.900	-25.982	0.099
93.000	-31.782	0.099
93.100	-23.763	0.099
93.200	-24.027	0.099
93.300	-23.721	0.099
93.400	-47.031	0.099
93.500	-46.284	0.099
93.600	-32.880	0.099
93.700	-42.488	0.099
93.800	-40.039	0.099
93.900	-33.137	0.099
94.000	-28.995	0.099
94.100	-31.145	0.099
94.200	-26.227	0.099
94.300	-35.128	0.099
94.400	-33.254	0.099
94.500	-41.390	0.099
94.600	-39.425	0.099
94.700	-26.777	0.099
94.800	-29.047	0.099
94.900	-39.831	0.099
95.000	-34.694	0.099
95.100	-31.791	0.099
95.200	-41.624	0.099
95.300	-38.265	0.099
95.400	-42.285	0.099
95.500	-37.396	0.099
95.600	-38.271	0.099
95.700	-35.454	0.099
95.800	-25.212	0.099
95.900	-36.831	0.099
96.000	-34.305	0.099
96.100	-27.819	0.099
96.200	-32.275	0.099
96.300	-36.268	0.099
96.400	-22.579	0.099
96.500	-48.641	0.099
