time /s	I /nA	E /V
0.100	-9.615	0.101
0.200	-13.134	0.101
0.300	-11.440	0.101
0.400	-5.754	0.101
0.500	-16.328	0.101
0.600	-9.115	0.101
0.700	-0.733	0.101
0.800	-4.314	0.101
0.900	-4.981	0.101
1.000	-11.729	0.101
1.100	-11.657	0.101
1.200	-12.155	0.101
1.300	-14.379	0.101
1.400	-0.051	0.101
1.500	-4.979	0.101
1.600	-15.336	0.101
1.700	-10.213	0.101
1.800	-2.618	0.101
1.900	-6.908	0.101
2.000	-15.679	0.101
2.100	-1.481	0.101
2.200	-6.648	0.101
2.300	-7.357	0.101
2.400	-14.942	0.101
2.500	-7.676	0.101
2.600	-10.561	0.101
2.700	3.775	0.101
2.800	-14.496	0.101
2.900	-16.043	0.101
3.000	-7.551	0.101
3.100	-0.413	0.101
3.200	-10.257	0.101
3.300	-5.869	0.101
3.400	-8.493	0.101
3.500	-10.607	0.101
3.600	-5.826	0.101
3.700	-9.805	0.101
3.800	-12.236	0.101
3.900	-9.061	0.101
4.000	-14.856	0.101
4.100	-16.511	0.101
4.200	-10.519	0.101
4.300	-2.241	0.101
4.400	-8.305	0.101
4.500	-11.759	0.101
4.600	-10.084	0.101
4.700	-1.385	0.101
4.800	-12.670	0.101
4.900	-8.324	0.101
5.000	-8.214	0.101
5.100	-1.950	0.101
5.200	-9.469	0.101
5.300	6.561	0.101
5.400	-11.380	0.101
5.500	-13.544	0.101
5.600	-15.708	0.101
5.700	-6.792	0.101
5.800	-14.279	0.101
5.900	-7.526	0.101
6.000	-9.199	0.101
6.100	-13.416	0.101
6.200	-20.408	0.101
6.300	-16.631	0.101
6.400	-8.825	0.101
6.500	1.010	0.101
6.600	-1.306	0.101
6.700	-3.238	0.101
6.800	-10.042	0.101
6.900	-16.521	0.101
7.000	-13.644	0.101
7.100	-9.482	0.101
7.200	-13.336	0.101
7.300	2.716	0.101
7.400	-10.490	0.101
7.500	-0.979	0.101
7.600	-20.350	0.101
7.700	-2.169	0.101
7.800	-2.136	0.101
7.900	-8.470	0.101
8.000	-15.875	0.101
8.100	-9.001	0.101
8.200	-13.363	0.101
8.300	-8.921	0.101
8.400	-3.204	0.101
8.500	-13.904	0.101
8.600	-12.131	0.101
8.700	-6.548	0.101
8.800	-12.442	0.101
8.900	-5.930	0.101
9.000	-4.245	0.101
9.100	-15.726	0.101
9.200	-9.097	0.101
9.300	-8.070	0.101
9.400	-12.110	0.101
9.500	-7.456	0.101
9.600	-4.196	0.101
9.700	-8.586	0.101
9.800	-13.795	0.101
9.900	-5.158	0.101
10.000	-8.457	0.101
10.100	0.366	0.101
10.200	-15.704	0.101
10.300	-15.084	0.101
10.400	-11.272	0.101
10.500	3.394	0.101
10.600	-9.014	0.101
10.700	-11.557	0.101
10.800	-10.039	0.101
10.900	-12.355	0.101
11.000	-10.798	0.101
11.100	-5.475	0.101
11.200	-9.070	0.101
11.300	-6.153	0.101
11.400	-7.000	0.101
11.500	-3.587	0.101
11.600	-15.920	0.101
11.700	-6.601	0.101
11.800	-20.579	0.101
11.900	-3.310	0.101
12.000	-11.110	0.101
12.100	2.041	0.101
12.200	-9.182	0.101
12.300	-2.548	0.101
12.400	-13.042	0.101
12.500	-15.395	0.101
12.600	-10.499	0.101
12.700	-13.664	0.101
12.800	-8.930	0.101
12.900	-0.208	0.101
13.000	-11.031	0.101
13.100	-6.532	0.101
13.200	-10.991	0.101
13.300	-12.575	0.101
13.400	-13.081	0.101
13.500	-6.755	0.101
13.600	-8.998	0.101
13.700	-4.751	0.101
13.800	-9.157	0.101
13.900	-0.487	0.101
14.000	-12.730	0.101
14.100	-3.494	0.101
14.200	-10.144	0.101
14.300	-9.162	0.101
14.400	2.495	0.101
14.500	-14.238	0.101
14.600	-6.591	0.101
14.700	-6.933	0.101
14.800	-4.403	0.101
14.900	-6.472	0.101
15.000	-2.174	0.101
15.100	1.436	0.101
15.200	-4.765	0.101
15.300	-14.865	0.101
15.400	-10.996	0.101
15.500	-10.207	0.101
15.600	-10.582	0.101
15.700	-11.392	0.101
15.800	-1.728	0.101
15.900	-7.445	0.101
16.000	-10.650	0.101
16.100	-8.539	0.101
16.200	-12.875	0.101
16.300	-4.947	0.101
16.400	-13.423	0.101
16.500	-3.754	0.101
16.600	0.671	0.101
16.700	-3.127	0.101
16.800	-3.855	0.101
16.900	-9.057	0.101
17.000	-15.119	0.101
17.100	-2.878	0.101
17.200	-1.851	0.101
17.300	-11.560	0.101
17.400	-9.798	0.101
17.500	-2.157	0.101
17.600	-6.353	0.101
17.700	-1.784	0.101
17.800	-7.891	0.101
17.900	-9.392	0.101
18.000	-9.386	0.101
18.100	-3.395	0.101
18.200	-0.311	0.101
18.300	-3.611	0.101
18.400	-4.908	0.101
18.500	-10.445	0.101
18.600	-8.416	0.101
18.700	-7.202	0.101
18.800	-9.162	0.101
18.900	-7.814	0.101
19.000	-3.449	0.101
19.100	-15.643	0.101
19.200	-7.975	0.101
19.300	-12.756	0.101
19.400	-0.160	0.101
19.500	-1.469	0.101
19.600	-13.627	0.101
19.700	-13.039	0.101
19.800	-10.351	0.101
19.900	-7.517	0.101
20.000	-2.326	0.101
20.100	-14.816	0.101
20.200	-15.766	0.101
20.300	-4.897	0.101
20.400	-7.122	0.101
20.500	-2.124	0.101
20.600	-13.143	0.101
20.700	-7.852	0.101
20.800	3.855	0.101
20.900	-8.845	0.101
21.000	-5.758	0.101
21.100	-0.186	0.101
21.200	-9.802	0.101
21.300	-20.901	0.101
21.400	-7.990	0.101
21.500	-13.353	0.101
21.600	-13.878	0.101
21.700	1.482	0.101
21.800	-2.223	0.101
21.900	-17.411	0.101
22.000	-1.341	0.101
22.100	-8.347	0.101
22.200	-2.048	0.101
22.300	-14.359	0.101
22.400	-15.044	0.101
22.500	-11.370	0.101
22.600	-10.964	0.101
22.700	-8.277	0.101
22.800	-4.505	0.101
22.900	-11.382	0.101
23.000	-3.852	0.101
23.100	3.510	0.101
23.200	-6.749	0.101
23.300	-20.644	0.101
23.400	-11.245	0.101
23.500	-6.926	0.101
23.600	-17.528	0.101
23.700	-4.196	0.101
23.800	-10.722	0.101
23.900	-9.731	0.101
24.000	-12.721	0.101
24.100	-7.064	0.101
24.200	1.247	0.101
24.300	-5.077	0.101
24.400	-8.784	0.101
24.500	-6.178	0.101
24.600	-7.062	0.101
24.700	-9.606	0.101
24.800	-9.462	0.101
24.900	-6.376	0.101
25.000	0.249	0.101
25.100	-11.494	0.101
25.200	-4.064	0.101
25.300	-1.979	0.101
25.400	-2.462	0.101
25.500	-7.829	0.101
25.600	-12.144	0.101
25.700	-13.647	0.101
25.800	-3.060	0.101
25.900	4.115	0.101
26.000	-3.680	0.101
26.100	-16.043	0.101
26.200	-20.845	0.101
26.300	-10.564	0.101
26.400	-7.355	0.101
26.500	-4.686	0.101
26.600	-9.790	0.101
26.700	-9.965	0.101
26.800	-8.999	0.101
26.900	-10.757	0.101
27.000	-1.819	0.101
27.100	-7.774	0.101
27.200	-16.491	0.101
27.300	-9.278	0.101
27.400	-15.006	0.101
27.500	-7.983	0.101
27.600	-13.436	0.101
27.700	0.730	0.101
27.800	3.721	0.101
27.900	-16.645	0.101
28.000	-13.780	0.101
28.100	-9.518	0.101
28.200	-8.366	0.101
28.300	-5.130	0.101
28.400	-3.989	0.101
28.500	-5.837	0.101
28.600	-10.531	0.101
28.700	-17.756	0.101
28.800	-6.712	0.101
28.900	-9.889	0.101
29.000	1.673	0.101
29.100	-6.693	0.101
29.200	-5.005	0.101
29.300	-10.399	0.101
29.400	-0.540	0.101
29.500	-3.950	0.101
29.600	-9.802	0.101
29.700	-10.161	0.101
29.800	-7.953	0.101
29.900	-4.821	0.101
30.000	-10.096	0.101
30.100	-10.543	0.101
30.200	-1.057	0.101
30.300	-15.189	0.101
30.400	-3.877	0.101
30.500	-3.888	0.101
30.600	13.427	0.101
30.700	1.463	0.101
30.800	3.081	0.101
30.900	-5.116	0.101
31.000	9.041	0.101
31.100	7.021	0.101
31.200	16.840	0.101
31.300	8.524	0.101
31.400	10.095	0.101
31.500	10.714	0.101
31.600	21.363	0.101
31.700	23.959	0.101
31.800	36.362	0.101
31.900	14.714	0.101
32.000	21.322	0.101
32.100	21.798	0.101
32.200	23.055	0.101
32.300	20.197	0.101
32.400	20.629	0.101
32.500	18.656	0.101
32.600	25.861	0.101
32.700	21.227	0.101
32.800	17.634	0.101
32.900	24.969	0.101
33.000	33.653	0.101
33.100	16.942	0.101
33.200	30.642	0.101
33.300	16.806	0.101
33.400	18.400	0.101
33.500	13.789	0.101
33.600	32.438	0.101
33.700	20.993	0.101
33.800	18.506	0.101
33.900	16.445	0.101
34.000	15.327	0.101
34.100	24.286	0.101
34.200	30.883	0.101
34.300	29.347	0.101
34.400	17.331	0.101
34.500	17.209	0.101
34.600	24.074	0.101
34.700	21.755	0.101
34.800	18.045	0.101
34.900	19.795	0.101
35.000	15.140	0.101
35.100	9.081	0.101
35.200	17.960	0.101
35.300	20.186	0.101
35.400	14.706	0.101
35.500	16.892	0.101
35.600	15.946	0.101
35.700	19.263	0.101
35.800	16.627	0.101
35.900	13.446	0.101
36.000	9.124	0.101
36.100	20.230	0.101
36.200	29.185	0.101
36.300	11.128	0.101
36.400	13.165	0.101
36.500	4.329	0.101
36.600	12.153	0.101
36.700	5.484	0.101
36.800	25.627	0.101
36.900	25.091	0.101
37.000	15.366	0.101
37.100	19.067	0.101
37.200	9.154	0.101
37.300	12.182	0.101
37.400	17.182	0.101
37.500	9.018	0.101
37.600	15.622	0.101
37.700	8.769	0.101
37.800	12.202	0.101
37.900	18.706	0.101
38.000	16.967	0.101
38.100	7.968	0.101
38.200	24.403	0.101
38.300	15.383	0.101
38.400	12.060	0.101
38.500	11.020	0.101
38.600	10.914	0.101
38.700	1.271	0.101
38.800	17.434	0.101
38.900	15.879	0.101
39.000	21.129	0.101
39.100	3.725	0.101
39.200	17.164	0.101
39.300	16.429	0.101
39.400	6.704	0.101
39.500	11.770	0.101
39.600	11.778	0.101
39.700	10.089	0.101
39.800	11.021	0.101
39.900	16.654	0.101
40.000	12.136	0.101
40.100	27.050	0.101
40.200	24.697	0.101
40.300	16.087	0.101
40.400	31.149	0.101
40.500	10.629	0.101
40.600	17.140	0.101
40.700	15.047	0.101
40.800	19.839	0.101
40.900	14.716	0.101
41.000	18.619	0.101
41.100	17.525	0.101
41.200	11.505	0.101
41.300	16.320	0.101
41.400	9.856	0.101
41.500	22.386	0.101
41.600	22.486	0.101
41.700	26.455	0.101
41.800	15.770	0.101
41.900	10.251	0.101
42.000	20.703	0.101
42.100	15.730	0.101
42.200	19.169	0.101
42.300	14.706	0.101
42.400	23.557	0.101
42.500	25.353	0.101
42.600	28.703	0.101
42.700	20.266	0.101
42.800	15.275	0.101
42.900	27.251	0.101
43.000	17.029	0.101
43.100	23.688	0.101
43.200	14.939	0.101
43.300	20.936	0.101
43.400	31.250	0.101
43.500	12.645	0.101
43.600	20.453	0.101
43.700	21.632	0.101
43.800	22.040	0.101
43.900	10.236	0.101
44.000	22.524	0.101
44.100	21.359	0.101
44.200	24.599	0.101
44.300	25.232	0.101
44.400	29.505	0.101
44.500	26.560	0.101
44.600	17.426	0.101
44.700	18.041	0.101
44.800	14.945	0.101
44.900	22.511	0.101
45.000	23.010	0.101
45.100	32.322	0.101
45.200	19.955	0.101
45.300	24.287	0.101
45.400	32.662	0.101
45.500	37.883	0.101
45.600	36.158	0.101
45.700	25.257	0.101
45.800	14.436	0.101
45.900	19.849	0.101
46.000	27.280	0.101
46.100	26.886	0.101
46.200	26.539	0.101
46.300	21.363	0.101
46.400	28.337	0.101
46.500	25.257	0.101
46.600	28.629	0.101
46.700	26.758	0.101
46.800	30.688	0.101
46.900	21.830	0.101
47.000	23.739	0.101
47.100	24.150	0.101
47.200	21.583	0.101
47.300	28.973	0.101
47.400	26.062	0.101
47.500	28.844	0.101
47.600	15.681	0.101
47.700	29.475	0.101
47.800	27.431	0.101
47.900	22.751	0.101
48.000	29.975	0.101
48.100	41.201	0.101
48.200	25.569	0.101
48.300	21.537	0.101
48.400	29.051	0.101
48.500	30.730	0.101
48.600	28.634	0.101
48.700	30.268	0.101
48.800	37.333	0.101
48.900	25.972	0.101
49.000	26.216	0.101
49.100	33.777	0.101
49.200	27.253	0.101
49.300	22.798	0.101
49.400	23.468	0.101
49.500	33.105	0.101
49.600	23.437	0.101
49.700	25.613	0.101
49.800	28.068	0.101
49.900	32.549	0.101
50.000	38.275	0.101
50.100	28.311	0.101
50.200	23.281	0.101
50.300	24.932	0.101
50.400	25.530	0.101
50.500	22.860	0.101
50.600	19.463	0.101
50.700	26.682	0.101
50.800	35.262	0.101
50.900	37.063	0.101
51.000	24.880	0.101
51.100	32.521	0.101
51.200	22.958	0.101
51.300	32.908	0.101
51.400	26.558	0.101
51.500	26.949	0.101
51.600	32.282	0.101
51.700	26.612	0.101
51.800	28.755	0.101
51.900	29.827	0.101
52.000	35.750	0.101
52.100	36.428	0.101
52.200	22.229	0.101
52.300	31.618	0.101
52.400	31.780	0.101
52.500	24.552	0.101
52.600	31.698	0.101
52.700	29.218	0.101
52.800	38.717	0.101
52.900	33.608	0.101
53.000	35.028	0.101
53.100	19.493	0.101
53.200	36.265	0.101
53.300	36.308	0.101
53.400	30.514	0.101
53.500	30.979	0.101
53.600	32.686	0.101
53.700	29.162	0.101
53.800	26.940	0.101
53.900	27.221	0.101
54.000	27.306	0.101
54.100	33.065	0.101
54.200	27.990	0.101
54.300	31.309	0.101
54.400	30.731	0.101
54.500	16.238	0.101
54.600	25.151	0.101
54.700	40.364	0.101
54.800	31.685	0.101
54.900	30.713	0.101
55.000	24.220	0.101
55.100	28.677	0.101
55.200	33.640	0.101
55.300	43.400	0.101
55.400	21.302	0.101
55.500	27.308	0.101
55.600	34.299	0.101
55.700	31.419	0.101
55.800	27.099	0.101
55.900	20.187	0.101
56.000	24.594	0.101
56.100	32.666	0.101
56.200	30.307	0.101
56.300	42.022	0.101
56.400	23.530	0.101
56.500	27.612	0.101
56.600	25.977	0.101
56.700	33.271	0.101
56.800	31.729	0.101
56.900	31.795	0.101
57.000	23.865	0.101
57.100	28.359	0.101
57.200	30.952	0.101
57.300	23.847	0.101
57.400	23.673	0.101
57.500	36.019	0.101
57.600	29.204	0.101
57.700	34.086	0.101
57.800	32.466	0.101
57.900	38.624	0.101
58.000	29.608	0.101
58.100	26.596	0.101
58.200	25.468	0.101
58.300	33.913	0.101
58.400	22.946	0.101
58.500	47.281	0.101
58.600	21.790	0.101
58.700	25.361	0.101
58.800	27.383	0.101
58.900	39.756	0.101
59.000	26.300	0.101
59.100	32.732	0.101
59.200	24.206	0.101
59.300	30.471	0.101
59.400	23.022	0.101
59.500	22.937	0.101
59.600	25.632	0.101
59.700	29.828	0.101
59.800	20.533	0.101
59.900	45.783	0.101
60.000	18.135	0.101
60.100	30.030	0.101
60.200	24.868	0.101
60.300	33.945	0.101
60.400	31.919	0.101
60.500	32.908	0.101
60.600	32.221	0.101
60.700	23.926	0.101
60.800	23.644	0.101
60.900	31.602	0.101
61.000	33.602	0.101
61.100	35.132	0.101
61.200	17.341	0.101
61.300	27.889	0.101
61.400	21.546	0.101
61.500	24.633	0.101
61.600	27.160	0.101
61.700	40.016	0.101
61.800	30.531	0.101
61.900	32.390	0.101
62.000	23.277	0.101
62.100	21.526	0.101
62.200	25.320	0.101
62.300	33.418	0.101
62.400	27.145	0.101
62.500	23.729	0.101
62.600	24.621	0.101
62.700	27.913	0.101
62.800	27.319	0.101
62.900	22.693	0.101
63.000	21.033	0.101
63.100	26.180	0.101
63.200	25.209	0.101
63.300	37.166	0.101
63.400	31.464	0.101
63.500	23.241	0.101
63.600	32.072	0.101
63.700	19.186	0.101
63.800	24.124	0.101
63.900	25.517	0.101
64.000	25.042	0.101
64.100	39.490	0.101
64.200	35.125	0.101
64.300	27.248	0.101
64.400	14.016	0.101
64.500	26.445	0.101
64.600	28.063	0.101
64.700	27.374	0.101
64.800	24.980	0.101
64.900	28.287	0.101
65.000	20.431	0.101
65.100	26.693	0.101
65.200	14.104	0.101
65.300	46.424	0.101
65.400	23.688	0.101
65.500	43.851	0.101
65.600	26.039	0.101
65.700	28.343	0.101
65.800	29.537	0.101
65.900	33.581	0.101
66.000	25.688	0.101
66.100	34.323	0.101
66.200	21.299	0.101
66.300	27.640	0.101
66.400	23.750	0.101
66.500	34.702	0.101
66.600	24.645	0.101
66.700	29.447	0.101
66.800	22.231	0.101
66.900	27.161	0.101
67.000	15.030	0.101
67.100	38.781	0.101
67.200	30.894	0.101
67.300	15.287	0.101
67.400	26.896	0.101
67.500	28.778	0.101
67.600	18.750	0.101
67.700	26.405	0.101
67.800	32.886	0.101
67.900	36.383	0.101
68.000	28.402	0.101
68.100	31.130	0.101
68.200	22.826	0.101
68.300	23.936	0.101
68.400	25.494	0.101
68.500	21.157	0.101
68.600	26.493	0.101
68.700	35.841	0.101
68.800	24.882	0.101
68.900	43.350	0.101
69.000	26.353	0.101
69.100	33.090	0.101
69.200	31.612	0.101
69.300	31.791	0.101
69.400	22.508	0.101
69.500	27.155	0.101
69.600	28.922	0.101
69.700	34.162	0.101
69.800	20.796	0.101
69.900	18.462	0.101
70.000	18.772	0.101
70.100	31.950	0.101
70.200	29.640	0.101
70.300	22.534	0.101
70.400	32.501	0.101
70.500	33.577	0.101
70.600	22.516	0.101
70.700	29.891	0.101
70.800	23.838	0.101
70.900	30.955	0.101
71.000	18.104	0.101
71.100	24.946	0.101
71.200	25.846	0.101
71.300	32.922	0.101
71.400	30.001	0.101
71.500	33.056	0.101
71.600	14.876	0.101
71.700	27.538	0.101
71.800	32.976	0.101
71.900	35.244	0.101
72.000	28.855	0.101
72.100	31.059	0.101
72.200	25.844	0.101
72.300	31.072	0.101
72.400	14.632	0.101
72.500	31.274	0.101
72.600	19.132	0.101
72.700	24.125	0.101
72.800	16.316	0.101
72.900	31.384	0.101
73.000	19.608	0.101
73.100	17.698	0.101
73.200	41.473	0.101
73.300	22.972	0.101
73.400	31.950	0.101
73.500	21.509	0.101
73.600	24.844	0.101
73.700	33.230	0.101
73.800	23.260	0.101
73.900	13.045	0.101
74.000	17.965	0.101
74.100	27.669	0.101
74.200	26.797	0.101
74.300	29.060	0.101
74.400	29.082	0.101
74.500	27.971	0.101
74.600	25.382	0.101
74.700	31.177	0.101
74.800	38.311	0.101
74.900	22.805	0.101
75.000	29.989	0.101
75.100	36.326	0.101
75.200	18.922	0.101
75.300	20.782	0.101
75.400	22.977	0.101
75.500	24.092	0.101
75.600	31.938	0.101
75.700	22.505	0.101
75.800	18.956	0.101
75.900	18.376	0.101
76.000	24.362	0.101
76.100	24.760	0.101
76.200	32.009	0.101
76.300	31.039	0.101
76.400	26.679	0.101
76.500	31.423	0.101
76.600	18.394	0.101
76.700	19.830	0.101
76.800	33.127	0.101
76.900	25.427	0.101
77.000	28.847	0.101
77.100	26.428	0.101
77.200	23.068	0.101
77.300	21.236	0.101
77.400	31.529	0.101
77.500	33.448	0.101
77.600	21.963	0.101
77.700	34.066	0.101
77.800	22.354	0.101
77.900	22.832	0.101
78.000	24.064	0.101
78.100	26.685	0.101
78.200	23.166	0.101
78.300	21.362	0.101
78.400	23.261	0.101
78.500	22.571	0.101
78.600	25.386	0.101
78.700	35.647	0.101
78.800	27.709	0.101
78.900	30.432	0.101
79.000	42.979	0.101
79.100	28.222	0.101
79.200	32.478	0.101
79.300	28.566	0.101
79.400	20.234	0.101
79.500	24.128	0.101
79.600	29.010	0.101
79.700	31.107	0.101
79.800	28.823	0.101
79.900	32.588	0.101
80.000	21.670	0.101
80.100	17.758	0.101
80.200	21.324	0.101
80.300	26.173	0.101
80.400	20.036	0.101
80.500	25.457	0.101
80.600	26.427	0.101
80.700	19.272	0.101
80.800	31.347	0.101
80.900	22.086	0.101
81.000	34.875	0.101
81.100	23.937	0.101
81.200	35.566	0.101
81.300	28.367	0.101
81.400	25.605	0.101
81.500	21.762	0.101
81.600	29.931	0.101
81.700	16.311	0.101
81.800	24.574	0.101
81.900	22.927	0.101
82.000	19.501	0.101
82.100	42.302	0.101
82.200	29.504	0.101
82.300	23.159	0.101
82.400	37.526	0.101
82.500	24.940	0.101
82.600	22.733	0.101
82.700	26.485	0.101
82.800	33.601	0.101
82.900	22.158	0.101
83.000	28.346	0.101
83.100	18.584	0.101
83.200	23.499	0.101
83.300	24.112	0.101
83.400	25.155	0.101
83.500	19.221	0.101
83.600	29.565	0.101
83.700	26.898	0.101
83.800	33.373	0.101
83.900	23.233	0.101
84.000	35.704	0.101
84.100	19.744	0.101
84.200	26.449	0.101
84.300	28.653	0.101
84.400	28.830	0.101
84.500	32.329	0.101
84.600	30.764	0.101
84.700	31.736	0.101
84.800	16.675	0.101
84.900	26.417	0.101
85.000	21.519	0.101
85.100	31.597	0.101
85.200	33.364	0.101
85.300	33.368	0.101
85.400	26.703	0.101
85.500	26.938	0.101
85.600	29.862	0.101
85.700	17.324	0.101
85.800	27.363	0.101
85.900	24.756	0.101
86.000	22.031	0.101
86.100	35.138	0.101
86.200	21.353	0.101
86.300	17.240	0.101
86.400	31.968	0.101
86.500	27.772	0.101
86.600	29.234	0.101
86.700	24.281	0.101
86.800	34.569	0.101
86.900	23.005	0.101
87.000	25.550	0.101
87.100	22.789	0.101
87.200	29.022	0.101
87.300	28.456	0.101
87.400	21.820	0.101
87.500	27.351	0.101
87.600	32.845	0.101
87.700	24.930	0.101
87.800	37.284	0.101
87.900	24.750	0.101
88.000	24.148	0.101
88.100	19.703	0.101
88.200	28.880	0.101
88.300	34.312	0.101
88.400	18.092	0.101
88.500	27.118	0.101
88.600	27.956	0.101
88.700	36.940	0.101
88.800	29.428	0.101
88.900	29.970	0.101
89.000	27.476	0.101
89.100	28.030	0.101
89.200	31.597	0.101
89.300	18.723	0.101
89.400	20.347	0.101
89.500	26.318	0.101
89.600	31.911	0.101
89.700	23.068	0.101
89.800	25.142	0.101
89.900	32.253	0.101
90.000	25.042	0.101
90.100	34.083	0.101
90.200	29.844	0.101
90.300	17.047	0.101
90.400	20.726	0.101
90.500	19.373	0.101
90.600	21.547	0.101
90.700	2.428	0.101
90.800	17.560	0.101
90.900	22.538	0.101
91.000	11.046	0.101
91.100	11.769	0.101
91.200	9.724	0.101
91.300	6.457	0.101
91.400	12.040	0.101
91.500	4.301	0.101
91.600	4.096	0.101
91.700	-3.006	0.101
91.800	-2.186	0.101
91.900	-13.721	0.101
92.000	2.070	0.101
92.100	-3.918	0.101
92.200	-11.441	0.101
92.300	-15.728	0.101
92.400	7.689	0.101
92.500	-13.641	0.101
92.600	-23.284	0.101
92.700	-11.946	0.101
92.800	-13.065	0.101
92.900	-9.672	0.101
93.000	-9.772	0.101
93.100	-6.825	0.101
93.200	-6.764	0.101
93.300	-31.598	0.101
93.400	-19.635	0.101
93.500	-23.178	0.101
93.600	-3.118	0.101
93.700	-17.107	0.101
93.800	-27.927	0.101
93.900	-20.224	0.101
94.000	-18.559	0.101
94.100	-13.123	0.101
94.200	-13.633	0.101
94.300	-14.612	0.101
94.400	-14.572	0.101
94.500	-17.497	0.101
94.600	-18.438	0.101
94.700	-29.897	0.101
94.800	-19.247	0.101
94.900	-14.609	0.101
95.000	-20.422	0.101
95.100	-21.322	0.101
