time /s	I /nA	E /V
0.100	-18.830	0.101
0.200	-14.815	0.101
0.300	-12.143	0.101
0.400	-10.525	0.101
0.500	-7.863	0.101
0.600	-9.366	0.101
0.700	0.372	0.101
0.800	0.836	0.101
0.900	-1.439	0.101
1.000	-7.095	0.101
1.100	-3.552	0.101
1.200	-6.477	0.101
1.300	-11.577	0.101
1.400	-18.172	0.101
1.500	-10.719	0.101
1.600	-20.579	0.101
1.700	-8.741	0.101
1.800	-17.567	0.101
1.900	-9.695	0.101
2.000	-24.415	0.101
2.100	-11.505	0.101
2.200	-6.128	0.101
2.300	-18.187	0.101
2.400	-15.030	0.101
2.500	-12.798	0.101
2.600	-8.984	0.101
2.700	-10.503	0.101
2.800	-11.415	0.101
2.900	-7.599	0.101
3.000	-5.857	0.101
3.100	-4.823	0.101
3.200	-7.743	0.101
3.300	-15.833	0.101
3.400	-10.154	0.101
3.500	-13.042	0.101
3.600	-10.349	0.101
3.700	-7.286	0.101
3.800	-6.468	0.101
3.900	-20.482	0.101
4.000	-12.132	0.101
4.100	-13.879	0.101
4.200	-2.379	0.101
4.300	-8.858	0.101
4.400	-10.959	0.101
4.500	-17.821	0.101
4.600	-17.640	0.101
4.700	-12.210	0.101
4.800	-9.517	0.101
4.900	-14.116	0.101
5.000	-7.996	0.101
5.100	-5.096	0.101
5.200	-16.591	0.101
5.300	-16.244	0.101
5.400	-2.167	0.101
5.500	-14.052	0.101
5.600	-17.621	0.101
5.700	-2.284	0.101
5.800	-11.697	0.101
5.900	-16.742	0.101
6.000	-10.159	0.101
6.100	-12.320	0.101
6.200	-16.674	0.101
6.300	-5.704	0.101
6.400	-18.172	0.101
6.500	-12.470	0.101
6.600	-15.514	0.101
6.700	-3.154	0.101
6.800	-5.972	0.101
6.900	-10.098	0.101
7.000	-17.863	0.101
7.100	-5.941	0.101
7.200	-11.145	0.101
7.300	-11.636	0.101
7.400	-12.063	0.101
7.500	-8.681	0.101
7.600	-9.798	0.101
7.700	-5.294	0.101
7.800	-13.783	0.101
7.900	-16.006	0.101
8.000	-6.654	0.101
8.100	-18.991	0.101
8.200	-9.253	0.101
8.300	-8.558	0.101
8.400	-11.178	0.101
8.500	-6.020	0.101
8.600	-14.707	0.101
8.700	-4.608	0.101
8.800	-5.427	0.101
8.900	-3.090	0.101
9.000	-17.065	0.101
9.100	-25.490	0.101
9.200	-10.585	0.101
9.300	-5.115	0.101
9.400	-6.275	0.101
9.500	-17.478	0.101
9.600	-26.759	0.101
9.700	-12.682	0.101
9.800	-4.166	0.101
9.900	-10.217	0.101
10.000	-12.231	0.101
10.100	-11.547	0.101
10.200	-16.842	0.101
10.300	-16.123	0.101
10.400	-3.648	0.101
10.500	-5.016	0.101
10.600	-14.637	0.101
10.700	-8.969	0.101
10.800	-14.801	0.101
10.900	0.677	0.101
11.000	-12.757	0.101
11.100	-22.075	0.101
11.200	-12.266	0.101
11.300	-12.035	0.101
11.400	-21.441	0.101
11.500	-22.506	0.101
11.600	-16.433	0.101
11.700	-4.854	0.101
11.800	-2.453	0.101
11.900	-12.995	0.101
12.000	-14.633	0.101
12.100	0.009	0.101
12.200	-11.553	0.101
12.300	-12.238	0.101
12.400	-9.968	0.101
12.500	-12.776	0.101
12.600	-3.497	0.101
12.700	-9.214	0.101
12.800	-8.017	0.101
12.900	-8.712	0.101
13.000	-13.675	0.101
13.100	-8.353	0.101
13.200	-18.183	0.101
13.300	-11.665	0.101
13.400	-21.436	0.101
13.500	-11.606	0.101
13.600	-6.515	0.101
13.700	-14.109	0.101
13.800	-11.534	0.101
13.900	-7.831	0.101
14.000	-10.849	0.101
14.100	-8.582	0.101
14.200	-14.146	0.101
14.300	-17.269	0.101
14.400	-7.991	0.101
14.500	-25.958	0.101
14.600	-23.439	0.101
14.700	-12.317	0.101
14.800	-11.728	0.101
14.900	-10.289	0.101
15.000	-3.840	0.101
15.100	-2.922	0.101
15.200	-17.546	0.101
15.300	-9.157	0.101
15.400	-6.088	0.101
15.500	0.528	0.101
15.600	-13.476	0.101
15.700	-10.867	0.101
15.800	-10.045	0.101
15.900	5.480	0.101
16.000	2.574	0.101
16.100	-3.827	0.101
16.200	-19.651	0.101
16.300	-15.883	0.101
16.400	-13.393	0.101
16.500	-8.882	0.101
16.600	-9.813	0.101
16.700	-3.203	0.101
16.800	-15.628	0.101
16.900	-13.373	0.101
17.000	-14.416	0.101
17.100	-16.032	0.101
17.200	-11.209	0.101
17.300	-3.665	0.101
17.400	-2.124	0.101
17.500	-4.376	0.101
17.600	-9.522	0.101
17.700	-12.581	0.101
17.800	-6.086	0.101
17.900	-16.577	0.101
18.000	-3.752	0.101
18.100	-15.114	0.101
18.200	-21.235	0.101
18.300	-19.076	0.101
18.400	-17.106	0.101
18.500	-10.432	0.101
18.600	-9.087	0.101
18.700	-10.917	0.101
18.800	-6.897	0.101
18.900	-11.392	0.101
19.000	-7.450	0.101
19.100	-15.422	0.101
19.200	-24.902	0.101
19.300	-13.934	0.101
19.400	-5.918	0.101
19.500	2.123	0.101
19.600	-11.672	0.101
19.700	-11.783	0.101
19.800	-11.635	0.101
19.900	-16.921	0.101
20.000	-18.773	0.101
20.100	-11.300	0.101
20.200	-3.406	0.101
20.300	0.129	0.101
20.400	-9.284	0.101
20.500	-9.944	0.101
20.600	-15.346	0.101
20.700	-10.779	0.101
20.800	-6.476	0.101
20.900	-2.978	0.101
21.000	-0.937	0.101
21.100	-12.987	0.101
21.200	-14.501	0.101
21.300	-19.213	0.101
21.400	-14.394	0.101
21.500	-10.918	0.101
21.600	-7.865	0.101
21.700	-5.473	0.101
21.800	-8.476	0.101
21.900	-13.020	0.101
22.000	-13.094	0.101
22.100	-1.824	0.101
22.200	-15.940	0.101
22.300	-6.449	0.101
22.400	-16.018	0.101
22.500	-20.380	0.101
22.600	-5.441	0.101
22.700	-14.866	0.101
22.800	-14.246	0.101
22.900	-18.091	0.101
23.000	-4.388	0.101
23.100	-4.738	0.101
23.200	-13.615	0.101
23.300	-13.665	0.101
23.400	-12.568	0.101
23.500	-6.152	0.101
23.600	-12.117	0.101
23.700	-2.199	0.101
23.800	-5.366	0.101
23.900	-14.969	0.101
24.000	-9.131	0.101
24.100	-3.061	0.101
24.200	1.138	0.101
24.300	-11.848	0.101
24.400	-2.745	0.101
24.500	-21.241	0.101
24.600	-14.105	0.101
24.700	-3.630	0.101
24.800	-18.009	0.101
24.900	-4.959	0.101
25.000	-20.865	0.101
25.100	-20.748	0.101
25.200	-8.265	0.101
25.300	-11.487	0.101
25.400	-7.837	0.101
25.500	-11.999	0.101
25.600	-7.456	0.101
25.700	-17.033	0.101
25.800	-12.506	0.101
25.900	-19.177	0.101
26.000	-9.715	0.101
26.100	-3.550	0.101
26.200	-11.854	0.101
26.300	-19.040	0.101
26.400	-19.684	0.101
26.500	-0.999	0.101
26.600	-1.500	0.101
26.700	-10.255	0.101
26.800	-7.118	0.101
26.900	-14.713	0.101
27.000	-8.692	0.101
27.100	-14.598	0.101
27.200	-11.833	0.101
27.300	-13.235	0.101
27.400	0.112	0.101
27.500	-0.022	0.101
27.600	-15.203	0.101
27.700	-12.541	0.101
27.800	-14.218	0.101
27.900	-12.787	0.101
28.000	-19.836	0.101
28.100	-16.550	0.101
28.200	-3.297	0.101
28.300	-10.305	0.101
28.400	-0.333	0.101
28.500	-8.856	0.101
28.600	-16.373	0.101
28.700	-9.542	0.101
28.800	-5.627	0.101
28.900	-20.595	0.101
29.000	-9.386	0.101
29.100	-17.245	0.101
29.200	-18.362	0.101
29.300	-2.903	0.101
29.400	-22.959	0.101
29.500	-8.279	0.101
29.600	-6.730	0.101
29.700	0.196	0.101
29.800	-10.831	0.101
29.900	-6.533	0.101
30.000	3.873	0.101
30.100	-8.352	0.101
30.200	-12.207	0.101
30.300	-10.455	0.101
30.400	-5.924	0.101
30.500	-0.478	0.101
30.600	2.314	0.101
30.700	-0.099	0.101
30.800	2.426	0.101
30.900	13.926	0.101
31.000	11.225	0.101
31.100	11.352	0.101
31.200	19.938	0.101
31.300	12.670	0.101
31.400	4.872	0.101
31.500	5.723	0.101
31.600	6.127	0.101
31.700	2.977	0.101
31.800	15.896	0.101
31.900	28.233	0.101
32.000	25.155	0.101
32.100	15.199	0.101
32.200	16.470	0.101
32.300	23.307	0.101
32.400	21.612	0.101
32.500	19.479	0.101
32.600	22.727	0.101
32.700	25.984	0.101
32.800	14.745	0.101
32.900	16.415	0.101
33.000	18.239	0.101
33.100	16.181	0.101
33.200	16.148	0.101
33.300	24.314	0.101
33.400	6.843	0.101
33.500	14.308	0.101
33.600	15.540	0.101
33.700	20.986	0.101
33.800	27.790	0.101
33.900	19.349	0.101
34.000	17.928	0.101
34.100	13.592	0.101
34.200	13.779	0.101
34.300	7.939	0.101
34.400	11.678	0.101
34.500	16.819	0.101
34.600	21.742	0.101
34.700	23.411	0.101
34.800	16.192	0.101
34.900	12.542	0.101
35.000	5.220	0.101
35.100	7.261	0.101
35.200	13.787	0.101
35.300	13.480	0.101
35.400	17.516	0.101
35.500	24.840	0.101
35.600	8.812	0.101
35.700	12.154	0.101
35.800	14.800	0.101
35.900	1.073	0.101
36.000	6.695	0.101
36.100	16.814	0.101
36.200	21.292	0.101
36.300	14.298	0.101
36.400	14.384	0.101
36.500	-1.005	0.101
36.600	19.628	0.101
36.700	13.896	0.101
36.800	11.878	0.101
36.900	7.442	0.101
37.000	0.651	0.101
37.100	12.876	0.101
37.200	2.471	0.101
37.300	0.812	0.101
37.400	4.888	0.101
37.500	18.997	0.101
37.600	18.695	0.101
37.700	14.479	0.101
37.800	18.675	0.101
37.900	12.863	0.101
38.000	14.114	0.101
38.100	8.849	0.101
38.200	17.921	0.101
38.300	14.554	0.101
38.400	11.852	0.101
38.500	16.825	0.101
38.600	11.055	0.101
38.700	7.252	0.101
38.800	7.671	0.101
38.900	17.637	0.101
39.000	22.330	0.101
39.100	15.112	0.101
39.200	15.932	0.101
39.300	0.469	0.101
39.400	15.259	0.101
39.500	6.362	0.101
39.600	6.751	0.101
39.700	14.141	0.101
39.800	21.105	0.101
39.900	11.580	0.101
40.000	17.685	0.101
40.100	2.036	0.101
40.200	2.248	0.101
40.300	11.721	0.101
40.400	17.891	0.101
40.500	21.508	0.101
40.600	24.733	0.101
40.700	22.508	0.101
40.800	16.325	0.101
40.900	12.584	0.101
41.000	7.309	0.101
41.100	19.133	0.101
41.200	7.891	0.101
41.300	13.046	0.101
41.400	13.452	0.101
41.500	11.521	0.101
41.600	7.045	0.101
41.700	21.671	0.101
41.800	27.723	0.101
41.900	18.226	0.101
42.000	14.659	0.101
42.100	16.778	0.101
42.200	17.343	0.101
42.300	29.194	0.101
42.400	22.491	0.101
42.500	20.466	0.101
42.600	21.470	0.101
42.700	12.170	0.101
42.800	15.688	0.101
42.900	12.268	0.101
43.000	21.754	0.101
43.100	10.243	0.101
43.200	21.198	0.101
43.300	19.909	0.101
43.400	17.595	0.101
43.500	20.289	0.101
43.600	17.130	0.101
43.700	12.801	0.101
43.800	21.273	0.101
43.900	21.328	0.101
44.000	19.733	0.101
44.100	16.657	0.101
44.200	27.569	0.101
44.300	21.355	0.101
44.400	25.230	0.101
44.500	17.982	0.101
44.600	20.492	0.101
44.700	22.027	0.101
44.800	18.710	0.101
44.900	24.791	0.101
45.000	15.816	0.101
45.100	17.657	0.101
45.200	23.940	0.101
45.300	31.475	0.101
45.400	29.563	0.101
45.500	14.041	0.101
45.600	29.787	0.101
45.700	28.085	0.101
45.800	17.397	0.101
45.900	20.704	0.101
46.000	32.934	0.101
46.100	27.895	0.101
46.200	29.261	0.101
46.300	11.835	0.101
46.400	17.189	0.101
46.500	27.625	0.101
46.600	28.769	0.101
46.700	17.555	0.101
46.800	28.378	0.101
46.900	20.684	0.101
47.000	23.194	0.101
47.100	13.971	0.101
47.200	18.825	0.101
47.300	25.916	0.101
47.400	31.783	0.101
47.500	34.694	0.101
47.600	21.836	0.101
47.700	15.702	0.101
47.800	32.249	0.101
47.900	39.983	0.101
48.000	28.502	0.101
48.100	25.438	0.101
48.200	22.253	0.101
48.300	19.676	0.101
48.400	21.969	0.101
48.500	26.115	0.101
48.600	34.411	0.101
48.700	36.337	0.101
48.800	21.575	0.101
48.900	24.111	0.101
49.000	23.854	0.101
49.100	26.045	0.101
49.200	35.113	0.101
49.300	21.893	0.101
49.400	27.669	0.101
49.500	33.225	0.101
49.600	31.658	0.101
49.700	24.153	0.101
49.800	16.981	0.101
49.900	32.055	0.101
50.000	34.283	0.101
50.100	28.811	0.101
50.200	27.275	0.101
50.300	25.188	0.101
50.400	31.002	0.101
50.500	31.212	0.101
50.600	34.125	0.101
50.700	28.956	0.101
50.800	37.904	0.101
50.900	40.588	0.101
51.000	35.669	0.101
51.100	31.401	0.101
51.200	27.434	0.101
51.300	39.483	0.101
51.400	32.034	0.101
51.500	39.201	0.101
51.600	24.465	0.101
51.700	27.969	0.101
51.800	29.745	0.101
51.900	20.639	0.101
52.000	36.417	0.101
52.100	24.446	0.101
52.200	23.607	0.101
52.300	42.132	0.101
52.400	42.794	0.101
52.500	34.930	0.101
52.600	31.319	0.101
52.700	38.082	0.101
52.800	30.335	0.101
52.900	33.058	0.101
53.000	33.487	0.101
53.100	36.921	0.101
53.200	34.905	0.101
53.300	37.819	0.101
53.400	24.737	0.101
53.500	29.807	0.101
53.600	31.424	0.101
53.700	29.786	0.101
53.800	28.221	0.101
53.900	37.818	0.101
54.000	30.039	0.101
54.100	31.541	0.101
54.200	31.943	0.101
54.300	42.273	0.101
54.400	38.646	0.101
54.500	47.938	0.101
54.600	35.593	0.101
54.700	34.723	0.101
54.800	33.839	0.101
54.900	47.721	0.101
55.000	41.275	0.101
55.100	39.957	0.101
55.200	26.571	0.101
55.300	37.915	0.101
55.400	41.554	0.101
55.500	47.994	0.101
55.600	38.275	0.101
55.700	28.256	0.101
55.800	46.255	0.101
55.900	44.129	0.101
56.000	26.897	0.101
56.100	40.885	0.101
56.200	41.252	0.101
56.300	35.423	0.101
56.400	36.514	0.101
56.500	43.164	0.101
56.600	46.442	0.101
56.700	44.301	0.101
56.800	42.721	0.101
56.900	48.327	0.101
57.000	34.604	0.101
57.100	36.693	0.101
57.200	30.436	0.101
57.300	38.715	0.101
57.400	33.865	0.101
57.500	31.144	0.101
57.600	39.484	0.101
57.700	36.936	0.101
57.800	40.287	0.101
57.900	31.863	0.101
58.000	41.162	0.101
58.100	49.969	0.101
58.200	47.795	0.101
58.300	37.332	0.101
58.400	40.931	0.101
58.500	44.210	0.101
58.600	24.897	0.101
58.700	25.695	0.101
58.800	34.472	0.101
58.900	39.409	0.101
59.000	29.249	0.101
59.100	44.440	0.101
59.200	47.413	0.101
59.300	40.687	0.101
59.400	36.815	0.101
59.500	37.945	0.101
59.600	34.561	0.101
59.700	40.841	0.101
59.800	37.683	0.101
59.900	40.971	0.101
60.000	39.170	0.101
60.100	41.266	0.101
60.200	42.742	0.101
60.300	49.576	0.101
60.400	24.555	0.101
60.500	30.736	0.101
60.600	34.572	0.101
60.700	34.643	0.101
60.800	39.542	0.101
60.900	47.179	0.101
61.000	39.471	0.101
61.100	33.160	0.101
61.200	37.388	0.101
61.300	39.359	0.101
61.400	44.439	0.101
61.500	43.005	0.101
61.600	41.525	0.101
61.700	45.177	0.101
61.800	54.888	0.101
61.900	34.915	0.101
62.000	35.216	0.101
62.100	42.299	0.101
62.200	36.982	0.101
62.300	38.712	0.101
62.400	44.208	0.101
62.500	37.716	0.101
62.600	42.627	0.101
62.700	44.065	0.101
62.800	38.701	0.101
62.900	30.528	0.101
63.000	28.259	0.101
63.100	40.154	0.101
63.200	45.101	0.101
63.300	42.326	0.101
63.400	38.052	0.101
63.500	34.207	0.101
63.600	39.231	0.101
63.700	25.565	0.101
63.800	42.054	0.101
63.900	35.323	0.101
64.000	33.111	0.101
64.100	43.743	0.101
64.200	41.745	0.101
64.300	31.269	0.101
64.400	43.656	0.101
64.500	32.685	0.101
64.600	45.299	0.101
64.700	42.280	0.101
64.800	35.776	0.101
64.900	26.381	0.101
65.000	32.690	0.101
65.100	34.976	0.101
65.200	27.964	0.101
65.300	35.307	0.101
65.400	32.835	0.101
65.500	50.789	0.101
65.600	47.483	0.101
65.700	44.022	0.101
65.800	44.340	0.101
65.900	33.790	0.101
66.000	43.519	0.101
66.100	39.684	0.101
66.200	28.050	0.101
66.300	26.728	0.101
66.400	47.307	0.101
66.500	47.525	0.101
66.600	36.610	0.101
66.700	39.956	0.101
66.800	25.731	0.101
66.900	34.078	0.101
67.000	40.557	0.101
67.100	35.338	0.101
67.200	35.089	0.101
67.300	38.428	0.101
67.400	46.290	0.101
67.500	29.710	0.101
67.600	34.416	0.101
67.700	41.205	0.101
67.800	36.649	0.101
67.900	45.529	0.101
68.000	41.096	0.101
68.100	37.169	0.101
68.200	47.400	0.101
68.300	32.591	0.101
68.400	27.184	0.101
68.500	31.260	0.101
68.600	41.472	0.101
68.700	36.812	0.101
68.800	36.621	0.101
68.900	38.634	0.101
69.000	37.912	0.101
69.100	28.728	0.101
69.200	33.179	0.101
69.300	29.981	0.101
69.400	37.791	0.101
69.500	40.643	0.101
69.600	39.963	0.101
69.700	42.163	0.101
69.800	38.480	0.101
69.900	46.112	0.101
70.000	32.312	0.101
70.100	34.895	0.101
70.200	25.246	0.101
70.300	28.992	0.101
70.400	38.102	0.101
70.500	38.722	0.101
70.600	33.057	0.101
70.700	33.428	0.101
70.800	35.375	0.101
70.900	40.637	0.101
71.000	41.212	0.101
71.100	31.241	0.101
71.200	36.146	0.101
71.300	42.839	0.101
71.400	41.827	0.101
71.500	39.243	0.101
71.600	34.411	0.101
71.700	24.732	0.101
71.800	23.749	0.101
71.900	40.974	0.101
72.000	52.969	0.101
72.100	40.948	0.101
72.200	28.496	0.101
72.300	35.193	0.101
72.400	41.487	0.101
72.500	36.946	0.101
72.600	32.860	0.101
72.700	37.952	0.101
72.800	34.504	0.101
72.900	40.306	0.101
73.000	32.764	0.101
73.100	42.012	0.101
73.200	40.372	0.101
73.300	33.719	0.101
73.400	32.206	0.101
73.500	26.260	0.101
73.600	39.787	0.101
73.700	41.079	0.101
73.800	28.516	0.101
73.900	34.059	0.101
74.000	35.308	0.101
74.100	37.436	0.101
74.200	45.763	0.101
74.300	32.249	0.101
74.400	39.333	0.101
74.500	28.356	0.101
74.600	46.061	0.101
74.700	25.455	0.101
74.800	22.334	0.101
74.900	32.688	0.101
75.000	32.938	0.101
75.100	38.083	0.101
75.200	26.150	0.101
75.300	34.470	0.101
75.400	43.607	0.101
75.500	35.763	0.101
75.600	37.403	0.101
75.700	33.806	0.101
75.800	40.328	0.101
75.900	38.399	0.101
76.000	29.083	0.101
76.100	47.691	0.101
76.200	47.945	0.101
76.300	33.111	0.101
76.400	37.527	0.101
76.500	36.364	0.101
76.600	30.015	0.101
76.700	22.771	0.101
76.800	45.173	0.101
76.900	29.016	0.101
77.000	44.101	0.101
77.100	49.935	0.101
77.200	26.599	0.101
77.300	36.754	0.101
77.400	33.823	0.101
77.500	23.684	0.101
77.600	38.331	0.101
77.700	27.477	0.101
77.800	27.205	0.101
77.900	29.022	0.101
78.000	34.661	0.101
78.100	37.489	0.101
78.200	30.956	0.101
78.300	22.974	0.101
78.400	32.893	0.101
78.500	46.558	0.101
78.600	35.240	0.101
78.700	30.297	0.101
78.800	45.702	0.101
78.900	35.255	0.101
79.000	26.014	0.101
79.100	34.934	0.101
79.200	33.355	0.101
79.300	31.491	0.101
79.400	38.904	0.101
79.500	40.838	0.101
79.600	32.894	0.101
79.700	30.603	0.101
79.800	36.233	0.101
79.900	17.733	0.101
80.000	28.615	0.101
80.100	37.054	0.101
80.200	38.148	0.101
80.300	35.981	0.101
80.400	42.868	0.101
80.500	29.257	0.101
80.600	32.661	0.101
80.700	30.199	0.101
80.800	39.200	0.101
80.900	29.514	0.101
81.000	42.409	0.101
81.100	36.384	0.101
81.200	34.067	0.101
81.300	43.628	0.101
81.400	42.831	0.101
81.500	23.017	0.101
81.600	32.494	0.101
81.700	35.450	0.101
81.800	25.295	0.101
81.900	42.959	0.101
82.000	43.591	0.101
82.100	44.230	0.101
82.200	39.410	0.101
82.300	33.282	0.101
82.400	31.926	0.101
82.500	35.811	0.101
82.600	31.871	0.101
82.700	26.233	0.101
82.800	20.104	0.101
82.900	32.560	0.101
83.000	31.994	0.101
83.100	33.825	0.101
83.200	43.026	0.101
83.300	36.523	0.101
83.400	30.275	0.101
83.500	37.851	0.101
83.600	26.140	0.101
83.700	25.288	0.101
83.800	35.958	0.101
83.900	36.473	0.101
84.000	34.111	0.101
84.100	41.053	0.101
84.200	37.474	0.101
84.300	33.843	0.101
84.400	44.299	0.101
84.500	33.402	0.101
84.600	35.529	0.101
84.700	31.224	0.101
84.800	41.088	0.101
84.900	29.301	0.101
85.000	35.245	0.101
85.100	48.339	0.101
85.200	40.784	0.101
85.300	38.583	0.101
85.400	26.858	0.101
85.500	26.189	0.101
85.600	20.658	0.101
85.700	36.410	0.101
85.800	36.500	0.101
85.900	44.155	0.101
86.000	45.804	0.101
86.100	37.204	0.101
86.200	32.560	0.101
86.300	36.669	0.101
86.400	38.222	0.101
86.500	32.990	0.101
86.600	27.370	0.101
86.700	27.917	0.101
86.800	42.188	0.101
86.900	34.017	0.101
87.000	33.712	0.101
87.100	35.223	0.101
87.200	39.113	0.101
87.300	38.798	0.101
87.400	31.914	0.101
87.500	46.311	0.101
87.600	43.029	0.101
87.700	42.573	0.101
87.800	32.868	0.101
87.900	37.380	0.101
88.000	40.912	0.101
88.100	35.784	0.101
88.200	36.015	0.101
88.300	28.105	0.101
88.400	26.742	0.101
88.500	35.388	0.101
88.600	32.386	0.101
88.700	30.489	0.101
88.800	43.103	0.101
88.900	33.631	0.101
89.000	36.490	0.101
89.100	26.862	0.101
89.200	34.170	0.101
89.300	46.035	0.101
89.400	34.256	0.101
89.500	25.438	0.101
89.600	24.811	0.101
89.700	37.933	0.101
89.800	36.646	0.101
89.900	32.423	0.101
90.000	31.587	0.101
90.100	34.877	0.101
90.200	32.515	0.101
90.300	31.531	0.101
90.400	21.982	0.101
90.500	30.864	0.101
90.600	19.258	0.101
90.700	16.348	0.101
90.800	16.023	0.101
90.900	17.664	0.101
91.000	23.945	0.101
91.100	15.959	0.101
91.200	13.009	0.101
91.300	4.029	0.101
91.400	11.266	0.101
91.500	5.768	0.101
91.600	2.325	0.101
91.700	1.705	0.101
91.800	11.946	0.101
91.900	11.925	0.101
92.000	-1.463	0.101
92.100	20.830	0.101
92.200	9.591	0.101
92.300	7.528	0.101
92.400	6.225	0.101
92.500	6.862	0.101
92.600	0.408	0.101
92.700	11.363	0.101
92.800	9.676	0.101
92.900	1.098	0.101
93.000	0.145	0.101
93.100	0.122	0.101
93.200	6.443	0.101
93.300	-0.804	0.101
93.400	-3.781	0.101
93.500	5.327	0.101
93.600	14.077	0.101
93.700	4.443	0.101
93.800	-4.633	0.101
93.900	3.778	0.101
94.000	-0.207	0.101
94.100	-2.880	0.101
94.200	2.733	0.101
94.300	1.087	0.101
94.400	-7.036	0.101
94.500	-11.292	0.101
94.600	-6.386	0.101
94.700	-7.675	0.101
94.800	-4.437	0.101
94.900	1.977	0.101
95.000	4.816	0.101
