time /s	I /nA	E /V
0.100	-9.211	0.100
0.200	-31.022	0.100
0.300	-23.900	0.100
0.400	-28.046	0.100
0.500	-19.287	0.100
0.600	-25.826	0.100
0.700	-13.662	0.100
0.800	-22.360	0.100
0.900	-17.861	0.100
1.000	-18.899	0.100
1.100	-21.058	0.100
1.200	-27.413	0.100
1.300	-31.155	0.100
1.400	-4.034	0.100
1.500	-15.264	0.100
1.600	-19.970	0.100
1.700	-19.147	0.100
1.800	-33.063	0.100
1.900	-17.456	0.100
2.000	-32.387	0.100
2.100	-25.541	0.100
2.200	-6.997	0.100
2.300	-16.821	0.100
2.400	-22.924	0.100
2.500	-14.113	0.100
2.600	-16.479	0.100
2.700	-30.037	0.100
2.800	-25.559	0.100
2.900	-6.616	0.100
3.000	-30.719	0.100
3.100	-20.719	0.100
3.200	-5.307	0.100
3.300	-21.503	0.100
3.400	-18.539	0.100
3.500	-20.754	0.100
3.600	-14.503	0.100
3.700	-29.861	0.100
3.800	-20.200	0.100
3.900	-26.580	0.100
4.000	-13.844	0.100
4.100	-28.118	0.100
4.200	-27.986	0.100
4.300	-22.764	0.100
4.400	-22.827	0.100
4.500	-20.358	0.100
4.600	-15.172	0.100
4.700	-17.439	0.100
4.800	-11.972	0.100
4.900	-11.247	0.100
5.000	-17.662	0.100
5.100	-26.235	0.100
5.200	-21.326	0.100
5.300	-20.755	0.100
5.400	-38.822	0.100
5.500	-34.096	0.100
5.600	-24.172	0.100
5.700	-17.144	0.100
5.800	-20.084	0.100
5.900	-13.973	0.100
6.000	-19.545	0.100
6.100	-34.317	0.100
6.200	-11.872	0.100
6.300	-24.859	0.100
6.400	-12.837	0.100
6.500	-25.565	0.100
6.600	-20.578	0.100
6.700	-27.234	0.100
6.800	-30.830	0.100
6.900	-14.830	0.100
7.000	-18.825	0.100
7.100	-12.274	0.100
7.200	-35.563	0.100
7.300	-15.402	0.100
7.400	-14.550	0.100
7.500	-25.857	0.100
7.600	-31.740	0.100
7.700	-25.291	0.100
7.800	-20.063	0.100
7.900	-21.540	0.100
8.000	-14.564	0.100
8.100	-5.168	0.100
8.200	-26.163	0.100
8.300	-29.480	0.100
8.400	-20.111	0.100
8.500	-26.168	0.100
8.600	-29.053	0.100
8.700	-33.946	0.100
8.800	-11.214	0.100
8.900	-17.728	0.100
9.000	-24.973	0.100
9.100	-17.303	0.100
9.200	-21.622	0.100
9.300	-22.164	0.100
9.400	-21.175	0.100
9.500	-18.236	0.100
9.600	-25.346	0.100
9.700	-39.058	0.100
9.800	-20.090	0.100
9.900	-23.845	0.100
10.000	-22.614	0.100
10.100	-39.797	0.100
10.200	-27.363	0.100
10.300	-15.973	0.100
10.400	-8.998	0.100
10.500	-24.269	0.100
10.600	-40.265	0.100
10.700	-23.220	0.100
10.800	-19.324	0.100
10.900	-23.665	0.100
11.000	-18.031	0.100
11.100	-21.962	0.100
11.200	-15.318	0.100
11.300	-19.948	0.100
11.400	-27.601	0.100
11.500	-22.759	0.100
11.600	-11.526	0.100
11.700	-23.129	0.100
11.800	-16.386	0.100
11.900	-21.572	0.100
12.000	-12.232	0.100
12.100	-40.397	0.100
12.200	-9.963	0.100
12.300	-26.867	0.100
12.400	-29.973	0.100
12.500	-22.725	0.100
12.600	-29.277	0.100
12.700	-21.030	0.100
12.800	-18.689	0.100
12.900	-16.571	0.100
13.000	-21.048	0.100
13.100	-29.032	0.100
13.200	-16.369	0.100
13.300	-26.331	0.100
13.400	-30.846	0.100
13.500	-21.213	0.100
13.600	-13.874	0.100
13.700	-21.372	0.100
13.800	-23.864	0.100
13.900	-24.173	0.100
14.000	-14.051	0.100
14.100	-21.180	0.100
14.200	-8.319	0.100
14.300	-15.498	0.100
14.400	-36.491	0.100
14.500	-22.793	0.100
14.600	-28.742	0.100
14.700	-20.350	0.100
14.800	-14.964	0.100
14.900	-18.864	0.100
15.000	-29.231	0.100
15.100	-33.409	0.100
15.200	-27.324	0.100
15.300	-11.071	0.100
15.400	-13.762	0.100
15.500	-15.869	0.100
15.600	-18.475	0.100
15.700	-17.390	0.100
15.800	-20.935	0.100
15.900	-25.649	0.100
16.000	-17.759	0.100
16.100	-15.798	0.100
16.200	-22.687	0.100
16.300	-14.462	0.100
16.400	-18.411	0.100
16.500	-27.244	0.100
16.600	-13.590	0.100
16.700	-30.861	0.100
16.800	-15.878	0.100
16.900	-22.172	0.100
17.000	-5.631	0.100
17.100	-23.155	0.100
17.200	-13.151	0.100
17.300	-28.920	0.100
17.400	-31.969	0.100
17.500	-17.073	0.100
17.600	-0.341	0.100
17.700	-13.846	0.100
17.800	-21.373	0.100
17.900	-24.457	0.100
18.000	-22.647	0.100
18.100	-22.268	0.100
18.200	-25.056	0.100
18.300	-13.827	0.100
18.400	-26.038	0.100
18.500	-20.710	0.100
18.600	-22.063	0.100
18.700	-13.371	0.100
18.800	-22.550	0.100
18.900	-17.152	0.100
19.000	-30.668	0.100
19.100	-22.171	0.100
19.200	-26.506	0.100
19.300	-11.780	0.100
19.400	-14.186	0.100
19.500	-15.762	0.100
19.600	-12.656	0.100
19.700	-12.489	0.100
19.800	-20.571	0.100
19.900	-15.338	0.100
20.000	-12.670	0.100
20.100	-27.660	0.100
20.200	-21.899	0.100
20.300	-14.947	0.100
20.400	-12.545	0.100
20.500	-12.297	0.100
20.600	-5.881	0.100
20.700	-16.777	0.100
20.800	-26.901	0.100
20.900	-20.130	0.100
21.000	-23.668	0.100
21.100	-33.427	0.100
21.200	-9.699	0.100
21.300	-13.139	0.100
21.400	-23.744	0.100
21.500	-4.002	0.100
21.600	-24.798	0.100
21.700	-30.328	0.100
21.800	-29.210	0.100
21.900	-25.015	0.100
22.000	-6.214	0.100
22.100	-17.092	0.100
22.200	-27.308	0.100
22.300	-18.866	0.100
22.400	-14.271	0.100
22.500	-23.510	0.100
22.600	-27.589	0.100
22.700	-20.063	0.100
22.800	-17.274	0.100
22.900	-29.042	0.100
23.000	-20.079	0.100
23.100	-15.844	0.100
23.200	-19.812	0.100
23.300	-22.126	0.100
23.400	-30.745	0.100
23.500	-20.169	0.100
23.600	-21.664	0.100
23.700	-17.797	0.100
23.800	-11.109	0.100
23.900	-24.957	0.100
24.000	-24.139	0.100
24.100	-20.186	0.100
24.200	-31.212	0.100
24.300	-19.177	0.100
24.400	-13.876	0.100
24.500	-12.336	0.100
24.600	-28.466	0.100
24.700	-16.032	0.100
24.800	-13.151	0.100
24.900	-24.685	0.100
25.000	-13.665	0.100
25.100	-17.881	0.100
25.200	-20.439	0.100
25.300	-15.969	0.100
25.400	-20.698	0.100
25.500	-26.233	0.100
25.600	-31.972	0.100
25.700	-22.737	0.100
25.800	-21.930	0.100
25.900	-28.800	0.100
26.000	-20.530	0.100
26.100	-11.182	0.100
26.200	-16.355	0.100
26.300	-24.903	0.100
26.400	-35.677	0.100
26.500	-23.852	0.100
26.600	-21.492	0.100
26.700	-9.528	0.100
26.800	-22.785	0.100
26.900	-31.034	0.100
27.000	-20.036	0.100
27.100	-8.322	0.100
27.200	-22.560	0.100
27.300	-7.314	0.100
27.400	-22.051	0.100
27.500	-21.236	0.100
27.600	-11.752	0.100
27.700	-27.247	0.100
27.800	-23.687	0.100
27.900	-16.206	0.100
28.000	-20.991	0.100
28.100	-18.099	0.100
28.200	-4.022	0.100
28.300	-20.868	0.100
28.400	-26.776	0.100
28.500	-20.547	0.100
28.600	-7.709	0.100
28.700	-17.792	0.100
28.800	-29.182	0.100
28.900	-20.707	0.100
29.000	-14.320	0.100
29.100	-9.902	0.100
29.200	-24.737	0.100
29.300	-34.096	0.100
29.400	-17.382	0.100
29.500	-3.765	0.100
29.600	-17.928	0.100
29.700	5.733	0.100
29.800	3.511	0.100
29.900	2.788	0.100
30.000	29.318	0.100
30.100	34.915	0.100
30.200	35.708	0.100
30.300	40.858	0.100
30.400	61.630	0.100
30.500	48.607	0.100
30.600	45.282	0.100
30.700	58.119	0.100
30.800	51.597	0.100
30.900	37.033	0.100
31.000	39.570	0.100
31.100	60.109	0.100
31.200	66.398	0.100
31.300	43.428	0.100
31.400	47.262	0.100
31.500	52.278	0.100
31.600	28.706	0.100
31.700	43.636	0.100
31.800	67.154	0.100
31.900	37.729	0.100
32.000	39.661	0.100
32.100	35.377	0.100
32.200	50.041	0.100
32.300	40.982	0.100
32.400	35.469	0.100
32.500	43.759	0.100
32.600	35.159	0.100
32.700	24.351	0.100
32.800	35.886	0.100
32.900	30.758	0.100
33.000	50.497	0.100
33.100	37.644	0.100
33.200	24.497	0.100
33.300	38.137	0.100
33.400	36.401	0.100
33.500	25.099	0.100
33.600	11.939	0.100
33.700	41.366	0.100
33.800	37.723	0.100
33.900	41.661	0.100
34.000	35.927	0.100
34.100	34.579	0.100
34.200	33.269	0.100
34.300	21.099	0.100
34.400	25.568	0.100
34.500	41.137	0.100
34.600	41.384	0.100
34.700	58.880	0.100
34.800	38.185	0.100
34.900	44.002	0.100
35.000	51.020	0.100
35.100	24.559	0.100
35.200	43.555	0.100
35.300	37.274	0.100
35.400	36.143	0.100
35.500	45.264	0.100
35.600	37.956	0.100
35.700	34.062	0.100
35.800	52.576	0.100
35.900	50.181	0.100
36.000	57.384	0.100
36.100	49.902	0.100
36.200	55.735	0.100
36.300	48.524	0.100
36.400	45.213	0.100
36.500	46.621	0.100
36.600	69.390	0.100
36.700	41.973	0.100
36.800	42.564	0.100
36.900	59.132	0.100
37.000	37.370	0.100
37.100	52.323	0.100
37.200	72.255	0.100
37.300	74.166	0.100
37.400	34.596	0.100
37.500	47.306	0.100
37.600	65.314	0.100
37.700	53.389	0.100
37.800	58.439	0.100
37.900	55.953	0.100
38.000	57.774	0.100
38.100	59.216	0.100
38.200	62.883	0.100
38.300	62.860	0.100
38.400	59.620	0.100
38.500	65.341	0.100
38.600	57.861	0.100
38.700	70.951	0.100
38.800	69.318	0.100
38.900	63.590	0.100
39.000	62.755	0.100
39.100	50.573	0.100
39.200	62.403	0.100
39.300	72.012	0.100
39.400	59.866	0.100
39.500	55.891	0.100
39.600	60.938	0.100
39.700	56.316	0.100
39.800	76.679	0.100
39.900	52.766	0.100
40.000	63.600	0.100
40.100	54.013	0.100
40.200	77.554	0.100
40.300	65.353	0.100
40.400	75.002	0.100
40.500	69.009	0.100
40.600	68.334	0.100
40.700	68.019	0.100
40.800	71.568	0.100
40.900	75.492	0.100
41.000	62.475	0.100
41.100	66.945	0.100
41.200	51.973	0.100
41.300	64.216	0.100
41.400	63.991	0.100
41.500	65.017	0.100
41.600	58.532	0.100
41.700	67.544	0.100
41.800	52.773	0.100
41.900	61.395	0.100
42.000	64.017	0.100
42.100	69.412	0.100
42.200	67.481	0.100
42.300	75.222	0.100
42.400	62.230	0.100
42.500	59.537	0.100
42.600	73.083	0.100
42.700	57.505	0.100
42.800	65.990	0.100
42.900	67.816	0.100
43.000	68.438	0.100
43.100	63.541	0.100
43.200	62.613	0.100
43.300	65.835	0.100
43.400	70.525	0.100
43.500	67.899	0.100
43.600	73.612	0.100
43.700	57.895	0.100
43.800	82.568	0.100
43.900	57.100	0.100
44.000	56.619	0.100
44.100	69.248	0.100
44.200	68.155	0.100
44.300	57.100	0.100
44.400	76.252	0.100
44.500	66.193	0.100
44.600	71.007	0.100
44.700	65.406	0.100
44.800	68.207	0.100
44.900	64.284	0.100
45.000	64.526	0.100
45.100	62.604	0.100
45.200	66.061	0.100
45.300	65.793	0.100
45.400	83.496	0.100
45.500	70.267	0.100
45.600	62.097	0.100
45.700	72.512	0.100
45.800	69.349	0.100
45.900	70.789	0.100
46.000	76.360	0.100
46.100	58.498	0.100
46.200	61.467	0.100
46.300	80.271	0.100
46.400	71.349	0.100
46.500	72.632	0.100
46.600	77.755	0.100
46.700	67.373	0.100
46.800	61.737	0.100
46.900	64.856	0.100
47.000	72.494	0.100
47.100	69.196	0.100
47.200	85.474	0.100
47.300	61.317	0.100
47.400	64.840	0.100
47.500	55.886	0.100
47.600	77.590	0.100
47.700	68.512	0.100
47.800	65.904	0.100
47.900	66.406	0.100
48.000	58.801	0.100
48.100	69.614	0.099
48.200	70.509	0.100
48.300	78.578	0.100
48.400	79.793	0.100
48.500	69.412	0.100
48.600	73.347	0.100
48.700	65.115	0.100
48.800	69.557	0.100
48.900	69.810	0.100
49.000	64.299	0.100
49.100	87.560	0.100
49.200	67.061	0.100
49.300	64.930	0.100
49.400	78.394	0.100
49.500	68.534	0.100
49.600	65.291	0.100
49.700	68.528	0.100
49.800	58.046	0.099
49.900	72.205	0.100
50.000	74.998	0.100
50.100	68.909	0.100
50.200	77.307	0.100
50.300	55.398	0.100
50.400	66.863	0.100
50.500	75.479	0.100
50.600	61.842	0.100
50.700	73.041	0.100
50.800	65.115	0.100
50.900	67.790	0.099
51.000	72.894	0.100
51.100	81.518	0.100
51.200	66.156	0.100
51.300	60.479	0.100
51.400	64.658	0.100
51.500	60.299	0.100
51.600	63.113	0.100
51.700	71.836	0.100
51.800	73.525	0.100
51.900	69.515	0.100
52.000	68.816	0.100
52.100	78.352	0.100
52.200	67.197	0.100
52.300	67.766	0.100
52.400	68.328	0.100
52.500	58.464	0.100
52.600	79.393	0.100
52.700	67.997	0.100
52.800	71.868	0.100
52.900	76.725	0.100
53.000	60.700	0.100
53.100	57.642	0.100
53.200	54.432	0.100
53.300	75.447	0.100
53.400	71.025	0.100
53.500	72.816	0.100
53.600	65.327	0.100
53.700	61.178	0.100
53.800	65.388	0.100
53.900	59.910	0.100
54.000	70.146	0.100
54.100	57.418	0.100
54.200	61.277	0.100
54.300	64.622	0.100
54.400	76.375	0.100
54.500	62.872	0.100
54.600	66.310	0.100
54.700	67.599	0.100
54.800	74.085	0.100
54.900	61.306	0.100
55.000	64.661	0.099
55.100	68.088	0.100
55.200	66.837	0.100
55.300	68.329	0.100
55.400	62.027	0.100
55.500	43.474	0.100
55.600	58.591	0.100
55.700	51.511	0.100
55.800	62.436	0.100
55.900	74.774	0.100
56.000	71.722	0.100
56.100	61.625	0.100
56.200	61.703	0.100
56.300	61.904	0.100
56.400	73.202	0.099
56.500	63.605	0.099
56.600	68.939	0.100
56.700	67.237	0.100
56.800	68.286	0.100
56.900	56.224	0.099
57.000	59.226	0.100
57.100	67.766	0.099
57.200	53.867	0.099
57.300	66.218	0.099
57.400	54.920	0.100
57.500	76.283	0.100
57.600	66.629	0.100
57.700	60.919	0.099
57.800	48.925	0.100
57.900	65.470	0.100
58.000	75.663	0.099
58.100	72.433	0.100
58.200	65.514	0.100
58.300	74.506	0.099
58.400	69.064	0.099
58.500	53.733	0.100
58.600	45.972	0.100
58.700	80.105	0.100
58.800	70.768	0.099
58.900	59.982	0.100
59.000	60.539	0.100
59.100	66.777	0.100
59.200	58.792	0.100
59.300	55.133	0.100
59.400	67.131	0.099
59.500	70.648	0.099
59.600	70.677	0.099
59.700	66.105	0.100
59.800	65.049	0.099
59.900	65.597	0.099
60.000	63.239	0.099
60.100	59.840	0.099
60.200	60.066	0.099
60.300	61.143	0.099
60.400	61.957	0.100
60.500	68.019	0.100
60.600	67.880	0.099
60.700	70.012	0.100
60.800	55.360	0.099
60.900	71.702	0.099
61.000	66.213	0.100
61.100	55.660	0.100
61.200	51.898	0.099
61.300	67.536	0.100
61.400	71.473	0.100
61.500	50.291	0.099
61.600	63.635	0.099
61.700	61.735	0.099
61.800	71.003	0.099
61.900	70.727	0.099
62.000	65.209	0.099
62.100	57.902	0.099
62.200	62.225	0.099
62.300	63.558	0.099
62.400	65.350	0.099
62.500	62.346	0.099
62.600	70.381	0.100
62.700	62.534	0.099
62.800	61.233	0.099
62.900	54.114	0.100
63.000	59.410	0.099
63.100	58.567	0.099
63.200	58.692	0.099
63.300	53.355	0.099
63.400	61.976	0.099
63.500	60.369	0.099
63.600	59.037	0.099
63.700	58.029	0.099
63.800	61.287	0.099
63.900	56.565	0.100
64.000	70.836	0.099
64.100	62.898	0.099
64.200	56.618	0.099
64.300	59.322	0.100
64.400	66.043	0.099
64.500	64.557	0.099
64.600	55.056	0.099
64.700	70.113	0.099
64.800	54.765	0.100
64.900	64.011	0.099
65.000	56.540	0.099
65.100	68.642	0.100
65.200	81.018	0.100
65.300	60.876	0.099
65.400	81.626	0.099
65.500	61.032	0.099
65.600	71.641	0.099
65.700	67.358	0.099
65.800	61.521	0.099
65.900	54.557	0.099
66.000	64.287	0.099
66.100	58.389	0.099
66.200	62.873	0.099
66.300	54.776	0.099
66.400	64.375	0.099
66.500	57.964	0.099
66.600	49.643	0.099
66.700	60.455	0.099
66.800	69.399	0.099
66.900	67.601	0.099
67.000	64.117	0.099
67.100	63.660	0.099
67.200	67.190	0.099
67.300	62.136	0.099
67.400	82.434	0.099
67.500	73.514	0.099
67.600	60.720	0.099
67.700	64.982	0.099
67.800	68.639	0.099
67.900	48.058	0.099
68.000	69.301	0.099
68.100	62.898	0.099
68.200	55.341	0.099
68.300	66.808	0.099
68.400	69.169	0.099
68.500	71.506	0.099
68.600	67.695	0.099
68.700	68.297	0.099
68.800	69.379	0.099
68.900	61.589	0.099
69.000	64.245	0.099
69.100	49.547	0.099
69.200	60.489	0.099
69.300	71.174	0.099
69.400	58.453	0.099
69.500	71.164	0.099
69.600	63.258	0.099
69.700	56.197	0.099
69.800	62.776	0.099
69.900	72.051	0.099
70.000	52.710	0.099
70.100	57.155	0.099
70.200	62.916	0.099
70.300	74.379	0.099
70.400	60.920	0.099
70.500	59.753	0.099
70.600	60.965	0.099
70.700	61.706	0.099
70.800	56.834	0.099
70.900	75.105	0.099
71.000	67.417	0.099
71.100	51.870	0.099
71.200	68.060	0.099
71.300	70.303	0.099
71.400	67.726	0.099
71.500	62.767	0.099
71.600	68.523	0.099
71.700	62.179	0.099
71.800	46.038	0.099
71.900	80.898	0.099
72.000	75.590	0.099
72.100	70.690	0.099
72.200	56.668	0.099
72.300	63.028	0.099
72.400	50.759	0.099
72.500	67.726	0.099
72.600	63.401	0.099
72.700	72.527	0.099
72.800	62.886	0.099
72.900	63.903	0.099
73.000	56.256	0.099
73.100	73.951	0.099
73.200	69.230	0.099
73.300	60.114	0.099
73.400	65.571	0.099
73.500	70.806	0.099
73.600	67.625	0.099
73.700	65.981	0.099
73.800	59.640	0.099
73.900	67.855	0.099
74.000	58.725	0.099
74.100	72.005	0.099
74.200	62.963	0.099
74.300	65.032	0.099
74.400	78.323	0.099
74.500	78.951	0.099
74.600	61.407	0.099
74.700	62.304	0.099
74.800	68.045	0.099
74.900	67.420	0.099
75.000	67.109	0.099
75.100	65.283	0.099
75.200	70.761	0.099
75.300	65.968	0.099
75.400	67.247	0.099
75.500	68.298	0.099
75.600	59.073	0.099
75.700	68.090	0.099
75.800	59.531	0.099
75.900	62.596	0.099
76.000	60.430	0.099
76.100	67.462	0.099
76.200	66.116	0.099
76.300	82.237	0.099
76.400	69.843	0.099
76.500	60.247	0.099
76.600	49.104	0.099
76.700	74.434	0.099
76.800	70.038	0.099
76.900	65.248	0.099
77.000	59.237	0.099
77.100	84.184	0.099
77.200	64.064	0.099
77.300	63.314	0.099
77.400	67.247	0.099
77.500	48.913	0.099
77.600	57.094	0.099
77.700	69.325	0.099
77.800	70.318	0.099
77.900	68.083	0.099
78.000	79.147	0.099
78.100	72.974	0.099
78.200	68.780	0.099
78.300	59.853	0.099
78.400	68.791	0.099
78.500	61.239	0.099
78.600	72.610	0.099
78.700	66.074	0.099
78.800	65.864	0.099
78.900	62.590	0.099
79.000	59.469	0.099
79.100	62.802	0.099
79.200	76.753	0.099
79.300	62.640	0.099
79.400	73.441	0.099
79.500	65.683	0.099
79.600	62.474	0.099
79.700	63.349	0.099
79.800	66.706	0.099
79.900	64.238	0.099
80.000	92.470	0.099
80.100	73.632	0.099
80.200	62.939	0.099
80.300	70.227	0.099
80.400	65.210	0.099
80.500	64.571	0.099
80.600	60.901	0.099
80.700	66.273	0.099
80.800	68.470	0.099
80.900	74.088	0.099
81.000	72.697	0.099
81.100	64.300	0.099
81.200	66.666	0.099
81.300	76.601	0.099
81.400	65.657	0.099
81.500	64.640	0.099
81.600	52.761	0.099
81.700	69.458	0.099
81.800	75.681	0.099
81.900	76.221	0.099
82.000	81.590	0.099
82.100	67.958	0.099
82.200	60.466	0.099
82.300	69.351	0.099
82.400	68.168	0.099
82.500	67.058	0.099
82.600	58.611	0.099
82.700	68.827	0.099
82.800	72.223	0.099
82.900	57.379	0.099
83.000	74.891	0.099
83.100	71.754	0.099
83.200	70.729	0.099
83.300	76.233	0.099
83.400	56.151	0.099
83.500	53.257	0.099
83.600	73.988	0.099
83.700	73.397	0.099
83.800	84.402	0.099
83.900	66.231	0.099
84.000	60.201	0.099
84.100	68.305	0.099
84.200	58.736	0.099
84.300	64.976	0.099
84.400	70.093	0.099
84.500	70.554	0.099
84.600	67.453	0.099
84.700	71.123	0.099
84.800	68.969	0.099
84.900	59.811	0.099
85.000	59.111	0.099
85.100	76.326	0.099
85.200	64.096	0.099
85.300	56.685	0.099
85.400	79.116	0.099
85.500	77.835	0.099
85.600	75.650	0.099
85.700	60.883	0.099
85.800	68.286	0.099
85.900	73.205	0.099
86.000	60.047	0.099
86.100	72.745	0.099
86.200	67.710	0.099
86.300	74.909	0.099
86.400	62.321	0.099
86.500	69.318	0.099
86.600	64.234	0.099
86.700	57.223	0.099
86.800	78.456	0.099
86.900	86.600	0.099
87.000	69.658	0.099
87.100	74.028	0.099
87.200	78.666	0.099
87.300	73.701	0.099
87.400	62.066	0.099
87.500	69.424	0.099
87.600	58.688	0.099
87.700	63.132	0.099
87.800	61.022	0.099
87.900	67.053	0.099
88.000	81.456	0.099
88.100	71.153	0.099
88.200	71.736	0.099
88.300	68.033	0.099
88.400	69.533	0.099
88.500	75.700	0.099
88.600	70.645	0.099
88.700	80.523	0.099
88.800	66.305	0.099
88.900	72.709	0.099
89.000	65.041	0.099
89.100	78.024	0.099
89.200	66.915	0.099
89.300	68.232	0.099
89.400	76.514	0.099
89.500	68.123	0.099
89.600	61.576	0.099
89.700	39.676	0.099
89.800	46.120	0.099
89.900	49.759	0.099
90.000	32.545	0.099
90.100	36.889	0.099
90.200	17.026	0.099
90.300	9.981	0.099
90.400	9.756	0.099
90.500	-10.378	0.099
90.600	-4.894	0.099
90.700	-18.402	0.099
90.800	-14.050	0.099
90.900	-13.974	0.099
91.000	-7.924	0.099
91.100	-17.733	0.099
91.200	-11.723	0.099
91.300	-30.035	0.099
91.400	-45.314	0.099
91.500	-36.822	0.099
91.600	-27.347	0.099
91.700	-21.068	0.099
91.800	-20.719	0.099
91.900	-25.928	0.099
92.000	-31.950	0.099
92.100	-21.529	0.099
92.200	-43.397	0.099
92.300	-36.753	0.099
92.400	-14.239	0.099
92.500	-33.549	0.099
92.600	-33.486	0.099
92.700	-34.469	0.099
92.800	-32.938	0.099
92.900	-28.307	0.099
93.000	-35.587	0.099
93.100	-38.409	0.099
93.200	-24.848	0.099
93.300	-32.973	0.099
93.400	-20.370	0.099
93.500	-27.076	0.099
93.600	-26.097	0.099
93.700	-33.032	0.099
93.800	-28.628	0.099
93.900	-31.481	0.099
94.000	-19.761	0.099
94.100	-25.703	0.099
