time /s	I /nA	E /V
0.100	-25.963	0.100
0.200	-21.084	0.100
0.300	-30.127	0.100
0.400	-22.137	0.100
0.500	-32.811	0.100
0.600	-18.363	0.100
0.700	-16.954	0.100
0.800	-22.571	0.100
0.900	-38.485	0.100
1.000	-19.191	0.100
1.100	-19.114	0.100
1.200	-18.662	0.100
1.300	-22.101	0.100
1.400	-31.907	0.100
1.500	-14.548	0.100
1.600	-30.210	0.100
1.700	-17.436	0.100
1.800	-23.776	0.100
1.900	-33.760	0.100
2.000	-11.963	0.100
2.100	-20.152	0.100
2.200	-20.114	0.100
2.300	-26.823	0.100
2.400	-22.964	0.100
2.500	-11.955	0.100
2.600	-17.631	0.100
2.700	-31.459	0.100
2.800	-25.389	0.100
2.900	-23.282	0.100
3.000	-14.460	0.100
3.100	-27.351	0.100
3.200	-31.321	0.100
3.300	-27.794	0.100
3.400	-24.547	0.100
3.500	-18.330	0.100
3.600	-27.578	0.100
3.700	-14.288	0.100
3.800	-26.239	0.100
3.900	-24.782	0.100
4.000	-22.358	0.100
4.100	-23.784	0.100
4.200	-14.329	0.100
4.300	-21.065	0.100
4.400	-15.519	0.100
4.500	-33.301	0.100
4.600	-29.143	0.100
4.700	-26.885	0.100
4.800	-37.233	0.100
4.900	-30.439	0.100
5.000	-25.863	0.100
5.100	-25.641	0.100
5.200	-27.701	0.100
5.300	-20.277	0.100
5.400	-37.270	0.100
5.500	-17.235	0.100
5.600	-18.368	0.100
5.700	-29.351	0.100
5.800	-25.196	0.100
5.900	-28.571	0.100
6.000	-19.005	0.100
6.100	-15.592	0.100
6.200	-26.721	0.100
6.300	-19.446	0.100
6.400	-22.890	0.100
6.500	-33.241	0.100
6.600	-38.655	0.100
6.700	-13.647	0.100
6.800	-10.101	0.100
6.900	-16.518	0.100
7.000	-14.718	0.100
7.100	-35.353	0.100
7.200	-39.895	0.100
7.300	-17.538	0.100
7.400	-30.862	0.100
7.500	-30.940	0.100
7.600	-13.560	0.100
7.700	-31.433	0.100
7.800	-26.528	0.100
7.900	-16.759	0.100
8.000	-14.401	0.100
8.100	-25.492	0.100
8.200	-33.442	0.100
8.300	-16.574	0.100
8.400	-24.872	0.100
8.500	-24.109	0.100
8.600	-24.910	0.100
8.700	-21.626	0.100
8.800	-12.940	0.100
8.900	-13.872	0.100
9.000	-15.422	0.100
9.100	-39.039	0.100
9.200	-34.880	0.100
9.300	-15.817	0.100
9.400	-19.379	0.100
9.500	-20.248	0.100
9.600	-23.903	0.100
9.700	-31.767	0.100
9.800	-20.124	0.100
9.900	-26.687	0.100
10.000	-20.136	0.100
10.100	-33.289	0.100
10.200	-19.497	0.100
10.300	-16.038	0.100
10.400	-12.435	0.100
10.500	-20.965	0.100
10.600	-21.180	0.100
10.700	-22.592	0.100
10.800	-24.321	0.100
10.900	-41.010	0.100
11.000	-14.121	0.100
11.100	-24.414	0.100
11.200	-30.595	0.100
11.300	-0.237	0.100
11.400	-14.353	0.100
11.500	-10.816	0.100
11.600	-25.382	0.100
11.700	-28.512	0.100
11.800	-22.521	0.100
11.900	-37.976	0.100
12.000	-19.361	0.100
12.100	-19.831	0.100
12.200	-22.714	0.100
12.300	-10.330	0.100
12.400	-27.408	0.100
12.500	-29.118	0.100
12.600	-35.288	0.100
12.700	-16.800	0.100
12.800	-29.873	0.100
12.900	-24.278	0.100
13.000	-29.443	0.100
13.100	-17.466	0.100
13.200	-16.202	0.100
13.300	-18.337	0.100
13.400	-32.486	0.100
13.500	-20.621	0.100
13.600	-16.820	0.100
13.700	-12.270	0.100
13.800	-29.572	0.100
13.900	-25.857	0.100
14.000	-20.672	0.100
14.100	-35.210	0.100
14.200	-25.932	0.100
14.300	-20.370	0.100
14.400	-27.617	0.100
14.500	-26.537	0.100
14.600	-26.957	0.100
14.700	-26.593	0.100
14.800	-28.756	0.100
14.900	-20.555	0.100
15.000	-20.328	0.100
15.100	-25.256	0.100
15.200	-25.066	0.100
15.300	-9.092	0.100
15.400	-6.250	0.100
15.500	-25.393	0.100
15.600	-20.951	0.100
15.700	-17.009	0.100
15.800	-10.686	0.100
15.900	-24.346	0.100
16.000	-27.724	0.100
16.100	-23.591	0.100
16.200	-23.564	0.100
16.300	-20.987	0.100
16.400	-27.241	0.100
16.500	-31.347	0.100
16.600	-23.770	0.100
16.700	-18.382	0.100
16.800	-32.418	0.100
16.900	-18.099	0.100
17.000	-20.815	0.100
17.100	-30.835	0.100
17.200	-18.048	0.100
17.300	-16.658	0.100
17.400	-26.020	0.100
17.500	-36.191	0.100
17.600	-30.612	0.100
17.700	-19.681	0.100
17.800	-23.749	0.100
17.900	-32.923	0.100
18.000	-16.194	0.100
18.100	-20.977	0.100
18.200	-21.291	0.100
18.300	-19.452	0.100
18.400	-38.373	0.100
18.500	-36.187	0.100
18.600	-26.858	0.100
18.700	-15.657	0.100
18.800	-13.241	0.100
18.900	-22.533	0.100
19.000	-15.169	0.099
19.100	-16.949	0.100
19.200	-23.782	0.100
19.300	-27.157	0.100
19.400	-21.555	0.100
19.500	-21.296	0.100
19.600	-21.800	0.100
19.700	-30.016	0.100
19.800	-30.080	0.100
19.900	-19.849	0.100
20.000	-20.374	0.100
20.100	-38.657	0.100
20.200	-24.759	0.100
20.300	-24.561	0.100
20.400	-29.685	0.100
20.500	-28.340	0.100
20.600	-34.480	0.100
20.700	-23.644	0.100
20.800	-21.339	0.100
20.900	-14.464	0.100
21.000	-41.473	0.100
21.100	-12.790	0.100
21.200	-15.757	0.100
21.300	-25.242	0.100
21.400	-20.931	0.100
21.500	-24.707	0.100
21.600	-27.326	0.100
21.700	-30.213	0.100
21.800	-26.176	0.100
21.900	-8.274	0.100
22.000	-26.473	0.100
22.100	-3.925	0.100
22.200	-10.250	0.100
22.300	-12.481	0.100
22.400	-32.694	0.100
22.500	-22.658	0.100
22.600	-32.860	0.100
22.700	-18.297	0.100
22.800	-17.862	0.100
22.900	-23.978	0.100
23.000	-13.086	0.100
23.100	-38.215	0.100
23.200	-26.853	0.100
23.300	-14.182	0.100
23.400	-22.893	0.100
23.500	-23.037	0.099
23.600	-32.087	0.100
23.700	-27.149	0.100
23.800	-30.563	0.100
23.900	-12.060	0.100
24.000	-30.062	0.100
24.100	-18.549	0.100
24.200	-17.268	0.100
24.300	-12.257	0.100
24.400	-35.387	0.100
24.500	-18.429	0.100
24.600	-25.513	0.100
24.700	-15.094	0.100
24.800	-10.704	0.100
24.900	-18.082	0.100
25.000	-15.167	0.100
25.100	-15.489	0.100
25.200	-26.333	0.100
25.300	-32.621	0.100
25.400	-8.765	0.100
25.500	-22.628	0.100
25.600	-16.789	0.100
25.700	-29.402	0.100
25.800	-18.907	0.100
25.900	-23.812	0.100
26.000	-27.332	0.100
26.100	-36.322	0.100
26.200	-27.958	0.100
26.300	-21.051	0.100
26.400	-15.580	0.100
26.500	-28.014	0.100
26.600	-22.059	0.100
26.700	-22.105	0.100
26.800	-41.201	0.100
26.900	-27.210	0.100
27.000	-4.817	0.100
27.100	-21.577	0.100
27.200	-21.486	0.100
27.300	-24.141	0.100
27.400	-31.797	0.100
27.500	-20.777	0.100
27.600	-28.362	0.100
27.700	-14.480	0.100
27.800	-16.834	0.100
27.900	-38.096	0.100
28.000	-13.793	0.100
28.100	-25.419	0.100
28.200	-21.781	0.100
28.300	-8.866	0.100
28.400	-23.073	0.100
28.500	-20.914	0.100
28.600	-19.565	0.100
28.700	-37.244	0.100
28.800	-8.873	0.100
28.900	-4.839	0.100
29.000	-14.415	0.100
29.100	-15.623	0.100
29.200	-25.065	0.100
29.300	-21.618	0.100
29.400	-16.749	0.100
29.500	-27.057	0.100
29.600	-19.184	0.100
29.700	-30.533	0.100
29.800	-22.306	0.100
29.900	-27.878	0.100
30.000	-22.946	0.100
30.100	-18.107	0.100
30.200	-13.965	0.100
30.300	-20.157	0.100
30.400	-24.078	0.100
30.500	-13.597	0.100
30.600	-17.256	0.100
30.700	-20.674	0.100
30.800	-7.386	0.100
30.900	0.878	0.100
31.000	-14.095	0.100
31.100	3.504	0.100
31.200	14.090	0.100
31.300	18.180	0.100
31.400	17.528	0.100
31.500	11.009	0.100
31.600	18.053	0.100
31.700	19.420	0.100
31.800	12.964	0.100
31.900	10.650	0.100
32.000	12.236	0.100
32.100	23.847	0.100
32.200	13.806	0.100
32.300	11.881	0.100
32.400	8.207	0.100
32.500	10.293	0.100
32.600	11.071	0.100
32.700	-1.104	0.100
32.800	24.268	0.100
32.900	10.540	0.100
33.000	10.844	0.099
33.100	14.110	0.100
33.200	-0.210	0.100
33.300	8.828	0.100
33.400	12.815	0.100
33.500	9.383	0.100
33.600	8.667	0.100
33.700	-2.202	0.100
33.800	24.619	0.100
33.900	11.815	0.100
34.000	10.320	0.100
34.100	2.692	0.100
34.200	4.891	0.100
34.300	-8.808	0.100
34.400	-1.939	0.100
34.500	19.845	0.100
34.600	10.730	0.100
34.700	9.753	0.100
34.800	10.345	0.100
34.900	3.616	0.100
35.000	-9.087	0.100
35.100	10.757	0.100
35.200	11.820	0.100
35.300	8.133	0.100
35.400	3.695	0.100
35.500	-1.257	0.100
35.600	0.328	0.100
35.700	5.709	0.100
35.800	2.216	0.100
35.900	2.227	0.100
36.000	1.720	0.100
36.100	-1.396	0.100
36.200	2.392	0.100
36.300	8.115	0.100
36.400	7.619	0.100
36.500	-5.154	0.100
36.600	6.997	0.100
36.700	17.475	0.100
36.800	2.571	0.100
36.900	11.655	0.100
37.000	-4.790	0.100
37.100	-2.001	0.100
37.200	0.016	0.100
37.300	1.138	0.100
37.400	1.593	0.100
37.500	7.576	0.100
37.600	16.160	0.100
37.700	-3.537	0.100
37.800	8.871	0.100
37.900	14.211	0.100
38.000	8.177	0.100
38.100	4.311	0.100
38.200	6.235	0.100
38.300	7.858	0.100
38.400	-6.206	0.100
38.500	-0.708	0.100
38.600	2.255	0.100
38.700	-3.431	0.100
38.800	7.518	0.100
38.900	-0.145	0.100
39.000	17.429	0.100
39.100	13.265	0.100
39.200	5.847	0.100
39.300	10.884	0.100
39.400	8.205	0.100
39.500	10.686	0.100
39.600	-5.079	0.100
39.700	-2.496	0.100
39.800	13.202	0.100
39.900	-0.518	0.100
40.000	3.247	0.100
40.100	13.096	0.100
40.200	2.691	0.100
40.300	18.348	0.100
40.400	15.704	0.100
40.500	13.005	0.100
40.600	6.929	0.100
40.700	5.119	0.100
40.800	6.535	0.100
40.900	4.668	0.100
41.000	6.909	0.100
41.100	11.916	0.100
41.200	-11.842	0.100
41.300	-7.085	0.100
41.400	17.805	0.100
41.500	-0.189	0.100
41.600	9.747	0.100
41.700	19.196	0.100
41.800	18.855	0.100
41.900	-2.478	0.100
42.000	21.346	0.100
42.100	14.806	0.100
42.200	-5.748	0.100
42.300	2.418	0.100
42.400	11.692	0.100
42.500	5.964	0.100
42.600	1.530	0.100
42.700	8.293	0.100
42.800	16.188	0.100
42.900	19.743	0.100
43.000	6.844	0.100
43.100	-2.459	0.100
43.200	4.779	0.100
43.300	11.889	0.100
43.400	18.829	0.100
43.500	14.112	0.100
43.600	15.144	0.100
43.700	14.995	0.100
43.800	11.311	0.100
43.900	5.455	0.100
44.000	13.598	0.100
44.100	10.823	0.100
44.200	18.606	0.100
44.300	10.372	0.100
44.400	11.576	0.100
44.500	13.460	0.100
44.600	0.510	0.100
44.700	8.276	0.100
44.800	19.777	0.100
44.900	11.339	0.100
45.000	16.454	0.100
45.100	9.880	0.100
45.200	12.918	0.100
45.300	-1.182	0.100
45.400	14.818	0.100
45.500	20.553	0.100
45.600	22.950	0.100
45.700	1.530	0.100
45.800	-3.716	0.100
45.900	18.486	0.100
46.000	-3.613	0.100
46.100	26.643	0.100
46.200	10.908	0.100
46.300	13.935	0.100
46.400	16.308	0.100
46.500	14.798	0.100
46.600	12.133	0.100
46.700	12.208	0.100
46.800	11.593	0.100
46.900	5.834	0.100
47.000	21.454	0.100
47.100	11.571	0.100
47.200	14.988	0.100
47.300	11.622	0.100
47.400	9.746	0.100
47.500	5.195	0.100
47.600	4.823	0.100
47.700	25.292	0.100
47.800	12.007	0.100
47.900	16.800	0.100
48.000	23.284	0.100
48.100	20.457	0.100
48.200	4.792	0.100
48.300	16.040	0.100
48.400	2.698	0.100
48.500	10.267	0.100
48.600	10.793	0.100
48.700	23.778	0.100
48.800	22.656	0.100
48.900	23.967	0.100
49.000	23.976	0.100
49.100	21.753	0.100
49.200	11.366	0.100
49.300	16.791	0.100
49.400	6.063	0.100
49.500	-2.877	0.100
49.600	30.057	0.100
49.700	22.864	0.100
49.800	18.257	0.100
49.900	26.865	0.100
50.000	14.712	0.100
50.100	12.915	0.100
50.200	30.235	0.100
50.300	16.658	0.100
50.400	16.982	0.100
50.500	19.578	0.100
50.600	19.564	0.100
50.700	23.352	0.100
50.800	22.051	0.100
50.900	15.807	0.100
51.000	14.083	0.100
51.100	9.257	0.100
51.200	22.674	0.100
51.300	24.617	0.100
51.400	27.313	0.100
51.500	7.448	0.100
51.600	22.277	0.100
51.700	24.233	0.100
51.800	14.855	0.100
51.900	16.999	0.100
52.000	18.141	0.100
52.100	44.220	0.100
52.200	22.646	0.100
52.300	19.791	0.100
52.400	23.693	0.100
52.500	15.010	0.100
52.600	27.978	0.100
52.700	25.055	0.100
52.800	19.355	0.100
52.900	24.746	0.100
53.000	27.942	0.100
53.100	22.803	0.100
53.200	34.078	0.100
53.300	22.331	0.100
53.400	33.422	0.100
53.500	8.697	0.100
53.600	18.828	0.100
53.700	20.346	0.100
53.800	41.748	0.100
53.900	21.603	0.100
54.000	37.934	0.100
54.100	9.106	0.100
54.200	24.910	0.100
54.300	27.744	0.100
54.400	29.784	0.100
54.500	20.394	0.100
54.600	22.602	0.100
54.700	31.164	0.100
54.800	24.648	0.100
54.900	28.854	0.100
55.000	22.949	0.100
55.100	29.089	0.100
55.200	31.167	0.100
55.300	37.372	0.100
55.400	25.714	0.100
55.500	24.973	0.100
55.600	27.103	0.100
55.700	31.264	0.100
55.800	26.200	0.100
55.900	30.005	0.100
56.000	31.184	0.100
56.100	17.453	0.100
56.200	20.866	0.100
56.300	27.493	0.100
56.400	47.422	0.100
56.500	41.100	0.100
56.600	28.812	0.100
56.700	31.892	0.100
56.800	24.563	0.100
56.900	39.280	0.100
57.000	14.393	0.100
57.100	39.463	0.100
57.200	32.146	0.100
57.300	25.117	0.100
57.400	31.779	0.100
57.500	24.327	0.100
57.600	37.654	0.100
57.700	36.175	0.100
57.800	31.798	0.100
57.900	45.058	0.100
58.000	40.265	0.100
58.100	32.020	0.100
58.200	21.775	0.100
58.300	46.781	0.100
58.400	34.081	0.100
58.500	37.985	0.100
58.600	30.378	0.100
58.700	31.144	0.100
58.800	25.149	0.100
58.900	30.250	0.100
59.000	34.031	0.100
59.100	38.243	0.100
59.200	32.281	0.100
59.300	35.692	0.100
59.400	28.505	0.100
59.500	26.128	0.100
59.600	54.535	0.100
59.700	41.237	0.100
59.800	26.782	0.100
59.900	29.917	0.100
60.000	23.756	0.100
60.100	41.644	0.100
60.200	22.780	0.100
60.300	56.657	0.100
60.400	48.560	0.100
60.500	37.419	0.100
60.600	34.277	0.100
60.700	37.729	0.100
60.800	27.834	0.100
60.900	35.859	0.100
61.000	35.672	0.100
61.100	30.727	0.100
61.200	28.696	0.100
61.300	56.391	0.100
61.400	32.552	0.100
61.500	41.881	0.100
61.600	51.362	0.100
61.700	42.151	0.100
61.800	42.381	0.100
61.900	38.344	0.100
62.000	39.174	0.100
62.100	33.856	0.100
62.200	42.119	0.100
62.300	39.947	0.100
62.400	30.588	0.100
62.500	52.014	0.100
62.600	37.775	0.100
62.700	45.984	0.100
62.800	43.275	0.100
62.900	49.236	0.100
63.000	31.116	0.100
63.100	27.245	0.100
63.200	55.097	0.099
63.300	42.376	0.100
63.400	52.254	0.100
63.500	45.374	0.100
63.600	52.167	0.100
63.700	46.658	0.100
63.800	39.450	0.100
63.900	40.457	0.100
64.000	34.513	0.100
64.100	36.479	0.100
64.200	37.643	0.100
64.300	48.060	0.100
64.400	49.772	0.100
64.500	41.912	0.100
64.600	35.323	0.100
64.700	13.246	0.100
64.800	41.710	0.100
64.900	61.977	0.100
65.000	49.478	0.100
65.100	45.138	0.100
65.200	37.143	0.100
65.300	58.108	0.100
65.400	40.918	0.100
65.500	49.246	0.100
65.600	38.960	0.100
65.700	38.575	0.100
65.800	59.482	0.100
65.900	34.561	0.100
66.000	51.662	0.100
66.100	48.251	0.100
66.200	24.771	0.100
66.300	50.458	0.100
66.400	43.384	0.100
66.500	48.589	0.100
66.600	47.004	0.100
66.700	53.303	0.100
66.800	40.884	0.100
66.900	39.235	0.100
67.000	38.940	0.100
67.100	36.550	0.100
67.200	50.150	0.100
67.300	50.662	0.100
67.400	46.745	0.100
67.500	48.169	0.100
67.600	31.713	0.100
67.700	58.227	0.100
67.800	40.142	0.100
67.900	61.345	0.100
68.000	50.054	0.100
68.100	40.466	0.100
68.200	52.379	0.100
68.300	43.079	0.100
68.400	48.518	0.100
68.500	47.768	0.100
68.600	34.459	0.100
68.700	49.345	0.100
68.800	33.018	0.100
68.900	38.906	0.100
69.000	54.102	0.100
69.100	50.998	0.100
69.200	57.607	0.100
69.300	45.519	0.100
69.400	40.043	0.100
69.500	47.839	0.100
69.600	55.508	0.100
69.700	46.369	0.100
69.800	47.534	0.100
69.900	36.998	0.100
70.000	54.877	0.100
70.100	52.262	0.100
70.200	45.695	0.100
70.300	43.159	0.100
70.400	35.918	0.100
70.500	42.086	0.100
70.600	46.953	0.100
70.700	40.071	0.100
70.800	36.168	0.100
70.900	36.895	0.100
71.000	36.145	0.100
71.100	55.424	0.100
71.200	55.938	0.100
71.300	50.997	0.100
71.400	45.867	0.100
71.500	51.962	0.100
71.600	49.076	0.100
71.700	31.656	0.100
71.800	55.192	0.100
71.900	51.254	0.100
72.000	54.647	0.100
72.100	39.993	0.100
72.200	42.513	0.100
72.300	35.211	0.100
72.400	42.790	0.100
72.500	62.099	0.100
72.600	51.728	0.100
72.700	46.425	0.100
72.800	47.970	0.100
72.900	42.493	0.100
73.000	48.253	0.100
73.100	45.113	0.100
73.200	41.342	0.100
73.300	43.312	0.100
73.400	55.917	0.100
73.500	43.309	0.100
73.600	51.730	0.100
73.700	42.815	0.100
73.800	44.130	0.100
73.900	52.005	0.100
74.000	40.613	0.100
74.100	49.051	0.100
74.200	52.461	0.100
74.300	46.337	0.100
74.400	47.237	0.100
74.500	56.637	0.100
74.600	37.353	0.100
74.700	39.503	0.100
74.800	53.780	0.100
74.900	47.413	0.100
75.000	52.583	0.100
75.100	60.815	0.100
75.200	44.663	0.100
75.300	37.269	0.100
75.400	40.256	0.100
75.500	46.809	0.100
75.600	48.689	0.100
75.700	44.696	0.100
75.800	36.689	0.100
75.900	49.775	0.100
76.000	46.973	0.100
76.100	44.887	0.100
76.200	51.327	0.100
76.300	42.824	0.100
76.400	39.470	0.100
76.500	40.207	0.100
76.600	34.137	0.100
76.700	43.653	0.100
76.800	53.480	0.100
76.900	45.268	0.100
77.000	45.980	0.100
77.100	42.480	0.100
77.200	43.756	0.100
77.300	38.165	0.100
77.400	53.319	0.100
77.500	47.413	0.100
77.600	38.865	0.100
77.700	43.807	0.100
77.800	46.760	0.100
77.900	36.796	0.100
78.000	26.530	0.100
78.100	44.602	0.100
78.200	52.324	0.100
78.300	34.650	0.100
78.400	51.089	0.100
78.500	53.807	0.100
78.600	35.225	0.100
78.700	42.891	0.100
78.800	41.296	0.100
78.900	67.095	0.100
79.000	46.323	0.100
79.100	49.416	0.100
79.200	46.126	0.100
79.300	26.602	0.100
79.400	40.486	0.100
79.500	32.443	0.100
79.600	49.089	0.100
79.700	37.776	0.100
79.800	34.750	0.100
79.900	36.396	0.100
80.000	46.898	0.100
80.100	38.262	0.100
80.200	44.469	0.100
80.300	58.558	0.100
80.400	37.222	0.100
80.500	45.922	0.100
80.600	46.479	0.100
80.700	41.919	0.100
80.800	44.127	0.100
80.900	43.295	0.100
81.000	38.996	0.100
81.100	37.763	0.100
81.200	51.208	0.100
81.300	45.866	0.100
81.400	36.309	0.100
81.500	61.599	0.100
81.600	35.495	0.100
81.700	44.201	0.100
81.800	42.046	0.100
81.900	38.271	0.100
82.000	43.434	0.100
82.100	39.040	0.100
82.200	49.340	0.100
82.300	35.473	0.100
82.400	44.351	0.100
82.500	33.032	0.100
82.600	48.722	0.100
82.700	51.206	0.100
82.800	33.496	0.100
82.900	45.963	0.100
83.000	57.094	0.100
83.100	45.430	0.100
83.200	47.053	0.100
83.300	51.471	0.100
83.400	55.051	0.100
83.500	33.980	0.100
83.600	38.759	0.100
83.700	49.088	0.100
83.800	42.112	0.100
83.900	43.115	0.100
84.000	45.447	0.100
84.100	34.745	0.100
84.200	42.675	0.100
84.300	53.408	0.100
84.400	45.607	0.100
84.500	33.221	0.100
84.600	52.754	0.100
84.700	41.604	0.100
84.800	47.245	0.100
84.900	51.773	0.100
85.000	49.185	0.100
85.100	43.930	0.100
85.200	35.911	0.100
85.300	45.999	0.100
85.400	38.814	0.100
85.500	37.412	0.100
85.600	50.298	0.100
85.700	42.047	0.100
85.800	36.073	0.100
85.900	47.770	0.100
86.000	48.927	0.100
86.100	27.802	0.100
86.200	36.653	0.100
86.300	49.128	0.100
86.400	37.694	0.100
86.500	31.803	0.100
86.600	60.000	0.100
86.700	45.227	0.100
86.800	42.935	0.100
86.900	38.229	0.100
87.000	39.425	0.100
87.100	44.114	0.100
87.200	52.067	0.100
87.300	49.276	0.100
87.400	40.577	0.100
87.500	47.578	0.100
87.600	47.336	0.100
87.700	54.148	0.100
87.800	47.621	0.100
87.900	25.678	0.100
88.000	42.705	0.100
88.100	38.693	0.100
88.200	51.150	0.100
88.300	50.051	0.100
88.400	42.818	0.100
88.500	35.600	0.100
88.600	33.534	0.100
88.700	41.301	0.100
88.800	40.693	0.100
88.900	42.857	0.100
89.000	30.588	0.100
89.100	34.252	0.100
89.200	36.650	0.100
89.300	41.414	0.100
89.400	46.059	0.100
89.500	38.447	0.100
89.600	35.171	0.100
89.700	43.195	0.100
89.800	33.022	0.100
89.900	49.473	0.100
90.000	32.123	0.100
90.100	53.528	0.100
90.200	49.764	0.100
90.300	38.161	0.100
90.400	30.568	0.100
90.500	23.072	0.100
90.600	38.863	0.100
90.700	28.284	0.100
90.800	29.893	0.100
90.900	24.953	0.100
91.000	33.931	0.100
91.100	12.028	0.100
91.200	8.789	0.100
91.300	11.734	0.100
91.400	12.642	0.100
91.500	18.724	0.100
91.600	8.590	0.100
91.700	2.460	0.100
91.800	5.683	0.100
91.900	-2.673	0.099
92.000	8.333	0.100
92.100	-5.395	0.100
92.200	9.197	0.100
92.300	7.898	0.100
92.400	-5.226	0.100
92.500	-9.359	0.100
92.600	-8.644	0.100
92.700	-6.273	0.100
92.800	1.810	0.100
92.900	-0.803	0.100
93.000	-5.335	0.100
93.100	-2.207	0.100
93.200	-3.402	0.100
93.300	-24.668	0.100
93.400	-12.070	0.100
93.500	-2.974	0.100
93.600	-4.216	0.100
93.700	-1.361	0.100
93.800	-1.034	0.100
93.900	-6.735	0.100
94.000	1.269	0.100
94.100	-7.662	0.100
94.200	-12.882	0.100
94.300	-14.141	0.100
94.400	-0.838	0.100
94.500	-1.764	0.100
