time /s	I /nA	
0.100	17.574	
0.200	-1.175	
0.300	-21.434	
0.400	-17.426	
0.500	-11.232	
0.600	-30.251	
0.700	-12.901	
0.800	-11.572	
0.900	-9.898	
1.000	-13.850	
1.100	-21.048	
1.200	-21.521	
1.300	-1.011	
1.400	-8.797	
1.500	1.036	
1.600	-13.748	
1.700	-14.133	
1.800	-5.745	
1.900	-28.171	
2.000	-12.415	
2.100	-0.468	
2.200	-8.360	
2.300	-24.659	
2.400	-14.810	
2.500	-18.888	
2.600	-23.284	
2.700	-12.560	
2.800	-21.312	
2.900	-1.481	
3.000	-30.577	
3.100	-8.830	
3.200	-14.451	
3.300	-16.518	
3.400	-12.783	
3.500	-15.160	
3.600	-22.184	
3.700	-15.634	
3.800	-22.657	
3.900	-25.705	
4.000	-2.184	
4.100	-9.433	
4.200	-11.460	
4.300	-9.312	
4.400	-21.781	
4.500	-11.302	
4.600	-24.030	
4.700	-22.655	
4.800	-2.309	
4.900	-0.521	
5.000	-12.048	
5.100	-12.227	
5.200	-16.235	
5.300	-18.131	
5.400	-32.496	
5.500	-9.772	
5.600	-9.357	
5.700	-12.652	
5.800	-16.241	
5.900	-15.877	
6.000	-20.876	
6.100	-16.434	
6.200	-3.356	
6.300	-9.310	
6.400	-15.000	
6.500	-4.480	
6.600	-19.497	
6.700	-19.278	
6.800	-24.253	
6.900	-34.324	
7.000	-17.145	
7.100	-1.927	
7.200	-6.921	
7.300	-27.624	
7.400	-19.997	
7.500	-19.258	
7.600	-20.026	
7.700	2.433	
7.800	-4.201	
7.900	-19.573	
8.000	-27.817	
8.100	2.648	
8.200	-15.860	
8.300	-24.000	
8.400	-9.548	
8.500	-10.915	
8.600	-19.391	
8.700	-16.238	
8.800	-6.621	
8.900	-10.509	
9.000	-20.678	
9.100	-10.782	
9.200	-5.051	
9.300	-26.974	
9.400	-6.474	
9.500	-13.289	
9.600	-9.177	
9.700	-16.781	
9.800	-16.491	
9.900	-13.929	
10.000	-16.205	
10.100	-5.665	
10.200	-18.188	
10.300	-16.162	
10.400	-5.061	
10.500	-10.449	
10.600	-12.092	
10.700	-17.808	
10.800	2.744	
10.900	-19.374	
11.000	-7.782	
11.100	-18.208	
11.200	-29.479	
11.300	-18.538	
11.400	-4.039	
11.500	-27.980	
11.600	-13.018	
11.700	-6.524	
11.800	-10.865	
11.900	-18.418	
12.000	-13.523	
12.100	-15.425	
12.200	-12.386	
12.300	-27.363	
12.400	-12.183	
12.500	-4.904	
12.600	-7.333	
12.700	-7.323	
12.800	-13.123	
12.900	-10.775	
13.000	-29.636	
13.100	-34.408	
13.200	-5.115	
13.300	-8.437	
13.400	-10.481	
13.500	-9.288	
13.600	-17.887	
13.700	-33.712	
13.800	-24.375	
13.900	2.084	
14.000	3.631	
14.100	-18.649	
14.200	-2.645	
14.300	-9.516	
14.400	-20.414	
14.500	-21.176	
14.600	-6.912	
14.700	-21.489	
14.800	-11.590	
14.900	-15.217	
15.000	-25.522	
15.100	-9.129	
15.200	-28.227	
15.300	-8.038	
15.400	-11.672	
15.500	-4.173	
15.600	-26.776	
15.700	-4.019	
15.800	-24.635	
15.900	-15.144	
16.000	-20.556	
16.100	-15.499	
16.200	-14.932	
16.300	-19.245	
16.400	-27.380	
16.500	-7.131	
16.600	-2.843	
16.700	-9.619	
16.800	-22.673	
16.900	-5.796	
17.000	-12.369	
17.100	-16.391	
17.200	-20.381	
17.300	-9.895	
17.400	-11.037	
17.500	-3.398	
17.600	-13.563	
17.700	-18.750	
17.800	3.953	
17.900	-14.187	
18.000	-18.882	
18.100	-20.746	
18.200	2.276	
18.300	-33.716	
18.400	-11.213	
18.500	-13.919	
18.600	-13.137	
18.700	-4.059	
18.800	-11.334	
18.900	-11.726	
19.000	-10.196	
19.100	-18.969	
19.200	-17.742	
19.300	-4.563	
19.400	-14.374	
19.500	-13.420	
19.600	-6.860	
19.700	-9.607	
19.800	-1.955	
19.900	-22.567	
20.000	-2.231	
20.100	-11.641	
20.200	-13.740	
20.300	-9.612	
20.400	-15.505	
20.500	-25.251	
20.600	-6.840	
20.700	-13.535	
20.800	-28.257	
20.900	-3.571	
21.000	1.111	
21.100	-30.646	
21.200	-15.229	
21.300	-2.965	
21.400	3.063	
21.500	-3.708	
21.600	-15.333	
21.700	-26.202	
21.800	-4.928	
21.900	0.934	
22.000	-12.484	
22.100	-25.234	
22.200	-16.541	
22.300	-13.685	
22.400	-2.495	
22.500	-14.863	
22.600	-29.929	
22.700	-12.707	
22.800	-9.503	
22.900	-13.612	
23.000	1.351	
23.100	-11.886	
23.200	-3.347	
23.300	-16.541	
23.400	-27.987	
23.500	-6.666	
23.600	8.591	
23.700	-14.466	
23.800	-6.978	
23.900	-15.037	
24.000	-17.608	
24.100	-3.098	
24.200	-17.455	
24.300	-15.922	
24.400	-14.489	
24.500	-2.192	
24.600	-12.217	
24.700	-16.985	
24.800	-6.054	
24.900	-14.256	
25.000	-13.045	
25.100	-8.137	
25.200	3.838	
25.300	-17.208	
25.400	-15.890	
25.500	-13.015	
25.600	-9.759	
25.700	-20.871	
25.800	-13.750	
25.900	-18.613	
26.000	-37.015	
26.100	3.113	
26.200	-15.904	
26.300	-15.282	
26.400	-18.368	
26.500	-22.814	
26.600	-8.725	
26.700	0.502	
26.800	-17.405	
26.900	2.977	
27.000	-6.776	
27.100	-15.192	
27.200	-12.957	
27.300	-6.459	
27.400	-25.261	
27.500	-11.522	
27.600	-0.450	
27.700	-7.730	
27.800	-9.057	
27.900	-12.871	
28.000	-15.741	
28.100	-24.425	
28.200	-4.389	
28.300	-4.611	
28.400	-0.470	
28.500	-8.684	
28.600	-14.127	
28.700	-5.375	
28.800	-12.010	
28.900	-11.566	
29.000	-13.180	
29.100	-11.322	
29.200	-9.188	
29.300	-7.588	
29.400	13.761	
29.500	23.936	
29.600	27.034	
29.700	40.568	
29.800	37.305	
29.900	53.435	
30.000	54.515	
30.100	68.967	
30.200	45.257	
30.300	62.294	
30.400	76.090	
30.500	54.713	
30.600	68.462	
30.700	80.627	
30.800	62.294	
30.900	60.868	
31.000	62.923	
31.100	81.645	
31.200	68.426	
31.300	63.149	
31.400	84.784	
31.500	75.750	
31.600	73.827	
31.700	66.425	
31.800	60.138	
31.900	77.328	
32.000	65.634	
32.100	67.687	
32.200	62.792	
32.300	53.063	
32.400	64.721	
32.500	55.360	
32.600	65.500	
32.700	45.139	
32.800	45.239	
32.900	45.254	
33.000	59.049	
33.100	50.112	
33.200	67.360	
33.300	52.469	
33.400	63.072	
33.500	55.232	
33.600	62.447	
33.700	32.731	
33.800	39.701	
33.900	58.606	
34.000	65.478	
34.100	45.621	
34.200	51.687	
34.300	46.768	
34.400	41.273	
34.500	45.218	
34.600	54.627	
34.700	56.780	
34.800	67.622	
34.900	54.825	
35.000	44.813	
35.100	59.330	
35.200	48.578	
35.300	55.551	
35.400	55.142	
35.500	53.755	
35.600	74.096	
35.700	65.488	
35.800	48.701	
35.900	60.981	
36.000	73.121	
36.100	55.228	
36.200	74.096	
36.300	69.921	
36.400	62.616	
36.500	65.919	
36.600	63.480	
36.700	64.594	
36.800	81.547	
36.900	53.285	
37.000	78.699	
37.100	83.453	
37.200	58.503	
37.300	73.547	
37.400	74.501	
37.500	72.703	
37.600	81.485	
37.700	64.187	
37.800	78.418	
37.900	76.144	
38.000	70.106	
38.100	65.580	
38.200	83.753	
38.300	69.121	
38.400	91.096	
38.500	82.292	
38.600	75.690	
38.700	74.548	
38.800	63.566	
38.900	79.020	
39.000	82.181	
39.100	78.993	
39.200	83.049	
39.300	81.519	
39.400	77.314	
39.500	79.850	
39.600	84.736	
39.700	89.790	
39.800	77.660	
39.900	80.851	
40.000	77.623	
40.100	80.194	
40.200	84.063	
40.300	87.911	
40.400	79.695	
40.500	83.235	
40.600	90.447	
40.700	63.935	
40.800	99.071	
40.900	98.879	
41.000	92.049	
41.100	83.977	
41.200	81.206	
41.300	82.846	
41.400	86.178	
41.500	86.964	
41.600	92.414	
41.700	94.874	
41.800	77.573	
41.900	88.260	
42.000	72.710	
42.100	80.779	
42.200	80.233	
42.300	83.454	
42.400	90.194	
42.500	92.079	
42.600	81.099	
42.700	71.832	
42.800	102.606	
42.900	77.386	
43.000	106.336	
43.100	92.135	
43.200	80.321	
43.300	85.454	
43.400	79.351	
43.500	85.201	
43.600	76.338	
43.700	94.296	
43.800	85.008	
43.900	82.840	
44.000	82.266	
44.100	84.242	
44.200	79.850	
44.300	92.339	
44.400	83.986	
44.500	80.223	
44.600	77.378	
44.700	90.437	
44.800	84.854	
44.900	88.937	
45.000	68.994	
45.100	106.542	
45.200	79.115	
45.300	97.049	
45.400	90.613	
45.500	77.539	
45.600	78.549	
45.700	87.412	
45.800	90.379	
45.900	65.141	
46.000	88.798	
46.100	91.448	
46.200	89.720	
46.300	91.711	
46.400	77.856	
46.500	76.820	
46.600	83.727	
46.700	96.874	
46.800	93.351	
46.900	76.269	
47.000	85.279	
47.100	85.220	
47.200	96.485	
47.300	84.239	
47.400	79.744	
47.500	94.040	
47.600	84.993	
47.700	81.587	
47.800	75.067	
47.900	84.924	
48.000	91.801	
48.100	70.748	
48.200	87.208	
48.300	67.033	
48.400	76.859	
48.500	86.026	
48.600	82.837	
48.700	73.581	
48.800	81.604	
48.900	83.166	
49.000	83.098	
49.100	84.763	
49.200	73.213	
49.300	82.990	
49.400	87.396	
49.500	71.641	
49.600	72.649	
49.700	85.036	
49.800	82.587	
49.900	75.073	
50.000	86.681	
50.100	82.487	
50.200	81.964	
50.300	62.788	
50.400	78.078	
50.500	75.759	
50.600	80.380	
50.700	71.669	
50.800	80.624	
50.900	72.924	
51.000	86.573	
51.100	73.717	
51.200	70.619	
51.300	75.659	
51.400	75.407	
51.500	69.087	
51.600	73.691	
51.700	65.360	
51.800	67.480	
51.900	72.668	
52.000	72.836	
52.100	68.936	
52.200	78.494	
52.300	82.675	
52.400	60.162	
52.500	63.287	
52.600	51.799	
52.700	83.419	
52.800	78.442	
52.900	59.892	
53.000	77.292	
53.100	52.649	
53.200	75.820	
53.300	83.395	
53.400	63.317	
53.500	65.926	
53.600	82.971	
53.700	71.515	
53.800	72.713	
53.900	75.111	
54.000	63.516	
54.100	73.130	
54.200	69.257	
54.300	78.879	
54.400	64.611	
54.500	67.372	
54.600	56.234	
54.700	60.947	
54.800	79.416	
54.900	58.007	
55.000	68.289	
55.100	61.489	
55.200	66.294	
55.300	72.601	
55.400	64.245	
55.500	54.100	
55.600	66.472	
55.700	66.717	
55.800	64.885	
55.900	51.760	
56.000	59.880	
56.100	61.801	
56.200	71.694	
56.300	53.667	
56.400	65.310	
56.500	56.634	
56.600	62.376	
56.700	74.487	
56.800	56.796	
56.900	51.291	
57.000	57.210	
57.100	89.898	
57.200	55.451	
57.300	66.483	
57.400	58.159	
57.500	54.373	
57.600	66.889	
57.700	81.156	
57.800	53.058	
57.900	61.735	
58.000	56.089	
58.100	61.333	
58.200	58.637	
58.300	47.525	
58.400	77.948	
58.500	63.266	
58.600	50.314	
58.700	69.549	
58.800	77.593	
58.900	53.154	
59.000	66.366	
59.100	70.803	
59.200	60.649	
59.300	60.247	
59.400	60.066	
59.500	62.635	
59.600	56.114	
59.700	57.482	
59.800	58.997	
59.900	56.707	
60.000	54.875	
60.100	77.108	
60.200	60.561	
60.300	58.415	
60.400	64.120	
60.500	49.322	
60.600	44.280	
60.700	50.608	
60.800	69.508	
60.900	57.635	
61.000	50.848	
61.100	54.200	
61.200	62.443	
61.300	65.417	
61.400	48.136	
61.500	56.944	
61.600	68.334	
61.700	47.042	
61.800	65.821	
61.900	54.425	
62.000	66.505	
62.100	51.799	
62.200	55.182	
62.300	66.855	
62.400	53.805	
62.500	68.155	
62.600	62.836	
62.700	55.611	
62.800	65.929	
62.900	41.552	
63.000	72.897	
63.100	59.465	
63.200	53.223	
63.300	64.046	
63.400	46.836	
63.500	65.105	
63.600	55.580	
63.700	54.106	
63.800	68.635	
63.900	53.927	
64.000	49.460	
64.100	64.168	
64.200	52.888	
64.300	59.227	
64.400	63.725	
64.500	44.069	
64.600	55.186	
64.700	49.261	
64.800	52.286	
64.900	46.130	
65.000	58.804	
65.100	61.763	
65.200	51.072	
65.300	64.947	
65.400	44.838	
65.500	65.901	
65.600	67.724	
65.700	55.269	
65.800	70.481	
65.900	52.137	
66.000	57.279	
66.100	58.831	
66.200	58.508	
66.300	61.894	
66.400	66.880	
66.500	62.533	
66.600	51.582	
66.700	62.872	
66.800	44.434	
66.900	48.321	
67.000	39.737	
67.100	49.387	
67.200	52.789	
67.300	55.945	
67.400	54.820	
67.500	61.828	
67.600	66.668	
67.700	41.691	
67.800	61.625	
67.900	59.834	
68.000	42.116	
68.100	65.149	
68.200	52.476	
68.300	60.459	
68.400	59.586	
68.500	43.665	
68.600	60.041	
68.700	65.712	
68.800	61.386	
68.900	69.702	
69.000	48.730	
69.100	57.880	
69.200	60.760	
69.300	43.670	
69.400	51.708	
69.500	55.263	
69.600	56.947	
69.700	65.921	
69.800	70.423	
69.900	59.319	
70.000	51.344	
70.100	61.992	
70.200	41.268	
70.300	64.320	
70.400	56.517	
70.500	65.401	
70.600	55.543	
70.700	51.908	
70.800	53.126	
70.900	63.582	
71.000	62.529	
71.100	61.181	
71.200	54.138	
71.300	63.677	
71.400	43.412	
71.500	68.705	
71.600	52.132	
71.700	71.639	
71.800	60.552	
71.900	64.539	
72.000	58.474	
72.100	61.059	
72.200	61.781	
72.300	52.164	
72.400	52.142	
72.500	65.341	
72.600	61.243	
72.700	68.486	
72.800	60.458	
72.900	57.396	
73.000	51.237	
73.100	56.939	
73.200	67.855	
73.300	52.095	
73.400	60.723	
73.500	67.896	
73.600	63.374	
73.700	69.993	
73.800	65.493	
73.900	71.303	
74.000	53.376	
74.100	55.511	
74.200	76.926	
74.300	54.784	
74.400	51.244	
74.500	66.243	
74.600	59.108	
74.700	51.514	
74.800	63.966	
74.900	68.594	
75.000	66.763	
75.100	42.665	
75.200	68.189	
75.300	54.082	
75.400	56.711	
75.500	76.675	
75.600	68.961	
75.700	52.948	
75.800	63.156	
75.900	52.767	
76.000	78.798	
76.100	72.093	
76.200	59.808	
76.300	57.391	
76.400	65.165	
76.500	64.571	
76.600	66.429	
76.700	62.797	
76.800	62.797	
76.900	73.544	
77.000	66.374	
77.100	69.861	
77.200	61.340	
77.300	57.868	
77.400	61.972	
77.500	65.098	
77.600	73.123	
77.700	65.260	
77.800	71.724	
77.900	58.670	
78.000	70.129	
78.100	59.041	
78.200	67.730	
78.300	75.351	
78.400	64.329	
78.500	61.873	
78.600	65.879	
78.700	73.112	
78.800	70.691	
78.900	53.847	
79.000	62.497	
79.100	58.257	
79.200	70.660	
79.300	64.757	
79.400	77.425	
79.500	75.736	
79.600	60.450	
79.700	63.032	
79.800	60.607	
79.900	61.991	
80.000	55.431	
80.100	64.088	
80.200	57.069	
80.300	71.415	
80.400	59.553	
80.500	72.406	
80.600	65.771	
80.700	72.212	
80.800	63.828	
80.900	59.511	
81.000	88.504	
81.100	52.503	
81.200	83.578	
81.300	65.743	
81.400	59.627	
81.500	70.733	
81.600	71.407	
81.700	64.390	
81.800	70.839	
81.900	69.121	
82.000	88.546	
82.100	65.493	
82.200	77.315	
82.300	68.550	
82.400	67.919	
82.500	70.232	
82.600	69.512	
82.700	63.516	
82.800	74.652	
82.900	57.755	
83.000	80.792	
83.100	68.438	
83.200	61.826	
83.300	69.202	
83.400	72.175	
83.500	63.188	
83.600	71.156	
83.700	82.039	
83.800	75.947	
83.900	71.285	
84.000	66.977	
84.100	64.508	
84.200	67.883	
84.300	69.596	
84.400	71.514	
84.500	80.313	
84.600	66.433	
84.700	76.061	
84.800	68.088	
84.900	86.484	
85.000	80.905	
85.100	73.709	
85.200	70.358	
85.300	71.236	
85.400	73.472	
85.500	62.621	
85.600	81.349	
85.700	73.832	
85.800	61.832	
85.900	91.442	
86.000	83.549	
86.100	73.403	
86.200	78.779	
86.300	71.262	
86.400	81.014	
86.500	69.639	
86.600	78.977	
86.700	71.376	
86.800	83.825	
86.900	62.375	
87.000	74.696	
87.100	67.725	
87.200	82.487	
87.300	77.637	
87.400	75.863	
87.500	57.895	
87.600	87.646	
87.700	79.006	
87.800	81.783	
87.900	76.583	
88.000	66.065	
88.100	74.036	
88.200	67.193	
88.300	81.085	
88.400	60.238	
88.500	69.514	
88.600	79.653	
88.700	68.322	
88.800	80.528	
88.900	81.903	
89.000	64.256	
89.100	73.990	
89.200	66.667	
89.300	62.709	
89.400	62.715	
89.500	44.649	
89.600	48.593	
89.700	36.552	
89.800	23.814	
89.900	29.528	
90.000	25.340	
90.100	20.377	
90.200	24.171	
90.300	14.101	
90.400	9.822	
90.500	14.966	
90.600	-16.409	
90.700	0.349	
90.800	-8.952	
90.900	0.750	
91.000	-27.928	
91.100	-20.620	
91.200	-27.941	
91.300	-19.974	
91.400	-52.372	
91.500	-6.087	
91.600	-35.920	
91.700	-31.529	
91.800	-40.761	
91.900	-46.029	
92.000	-55.795	
92.100	-38.545	
92.200	-53.083	
92.300	-52.529	
92.400	-43.382	
92.500	-43.833	
92.600	-57.675	
92.700	-61.817	
92.800	-66.636	
92.900	-53.962	
93.000	-50.298	
93.100	-64.278	
93.200	-49.573	
93.300	-69.895	
93.400	-47.951	
93.500	-60.000	
93.600	-49.785	
93.700	-69.176	
93.800	-69.700	
93.900	-52.686	
94.000	-63.803	
94.100	-51.854	
94.200	-64.210	
94.300	-65.970	
94.400	-65.960	
94.500	-53.948	
94.600	-66.992	
94.700	-60.658	
94.800	-49.115	
94.900	-49.295	
95.000	-65.481	
95.100	-53.296	
95.200	-52.502	
95.300	-51.531	
95.400	-70.820	
95.500	-53.808	
95.600	-47.292	
95.700	-52.992	
95.800	-50.218	
95.900	-57.116	
96.000	-62.339	
96.100	-52.101	
96.200	-51.072	
96.300	-50.724	
96.400	-46.754	
96.500	-48.860	
96.600	-43.899	
96.700	-51.706	
96.800	-48.636	
96.900	-37.243	
97.000	-61.185	
97.100	-35.361	
97.200	-28.982	
97.300	-42.113	
97.400	-53.736	
97.500	-61.854	
97.600	-27.496	
97.700	-33.729	
97.800	-34.774	
97.900	-43.160	
98.000	-31.386	
98.100	-54.174	
98.200	-42.850	
98.300	-31.101	
98.400	-39.214	
98.500	-39.669	
98.600	-32.562	
98.700	-33.663	
98.800	-31.833	
98.900	-31.916	
99.000	-35.910	
99.100	-49.995	
99.200	-33.412	
99.300	-37.451	
99.400	-27.001	
99.500	-41.428	
99.600	-29.515	
99.700	-32.445	
99.800	-36.316	
99.900	-34.838	
100.000	-34.976	
100.100	-34.410	
100.200	-15.186	
100.300	-30.813	
100.400	-25.955	
100.500	-52.694	
100.600	-39.257	
100.700	-21.711	
100.800	-39.856	
100.900	-40.095	
101.000	-32.448	
101.100	-31.768	
101.200	-23.496	
101.300	-26.563	
101.400	-27.040	
101.500	-23.117	
101.600	-35.320	
101.700	-44.958	
101.800	-32.626	
101.900	-23.010	
102.000	-21.965	
102.100	-32.715	
102.200	-34.077	
102.300	-36.531	
102.400	-26.205	
102.500	-29.200	
102.600	-31.139	
102.700	-24.861	
102.800	-33.160	
102.900	-58.721	
103.000	-30.367	
103.100	-20.447	
103.200	-41.925	
103.300	-37.759	
103.400	-23.248	
103.500	-37.721	
103.600	-25.381	
103.700	-16.937	
103.800	-50.583	
103.900	-19.375	
104.000	-33.167	
104.100	-27.130	
104.200	-31.634	
104.300	-28.783	
104.400	-28.655	
104.500	-35.991	
104.600	-46.494	
104.700	-11.660	
104.800	-29.670	
104.900	-30.523	
105.000	-38.537	
105.100	-30.558	
105.200	-18.480	
105.300	-42.774	
105.400	-25.590	
105.500	-33.989	
105.600	-30.247	
105.700	-30.374	
105.800	-38.583	
105.900	-28.536	
106.000	-35.281	
106.100	-31.616	
106.200	-28.084	
106.300	-39.254	
106.400	-36.051	
106.500	-38.403	
106.600	-19.800	
106.700	-35.593	
106.800	-34.237	
106.900	-27.224	
107.000	-19.877	
107.100	-29.375	
107.200	-40.041	
107.300	-28.565	
107.400	-30.331	
107.500	-49.038	
107.600	-22.998	
107.700	-36.917	
107.800	-13.697	
107.900	-47.389	
108.000	-22.365	
108.100	-35.482	
108.200	-43.474	
108.300	-35.435	
108.400	-43.284	
108.500	-23.447	
108.600	-40.178	
108.700	-30.032	
108.800	-22.115	
108.900	-31.348	
109.000	-35.617	
109.100	-18.912	
109.200	-32.278	
109.300	-42.346	
109.400	-30.588	
109.500	-40.243	
109.600	-29.098	
109.700	-33.735	
109.800	-50.010	
109.900	-51.111	
110.000	-31.914	
110.100	-21.058	
110.200	-42.422	
110.300	-14.035	
110.400	-29.712	
110.500	-37.179	
110.600	-30.105	
110.700	-28.024	
110.800	-38.414	
110.900	-44.766	
111.000	-24.642	
111.100	-37.216	
111.200	-34.178	
111.300	-33.340	
111.400	-27.776	
111.500	-24.148	
111.600	-28.769	
111.700	-38.240	
111.800	-30.044	
111.900	-41.473	
112.000	-32.100	
112.100	-31.619	
112.200	-23.257	
112.300	-26.107	
112.400	-37.974	
112.500	-29.087	
112.600	-36.074	
112.700	-39.727	
112.800	-24.293	
112.900	-44.048	
113.000	-31.176	
113.100	-27.212	
113.200	-43.650	
113.300	-27.357	
113.400	-26.982	
113.500	-36.685	
113.600	-41.390	
113.700	-27.476	
113.800	-51.237	
113.900	-24.322	
114.000	-20.827	
114.100	-30.858	
114.200	-47.254	
114.300	-33.522	
114.400	-30.821	
114.500	-42.512	
114.600	-20.950	
114.700	-45.241	
114.800	-41.477	
114.900	-36.335	
115.000	-36.047	
115.100	-44.550	
115.200	-27.927	
115.300	-25.255	
115.400	-33.852	
115.500	-20.102	
115.600	-48.347	
115.700	-24.465	
115.800	-35.278	
115.900	-26.118	
116.000	-30.358	
116.100	-33.455	
116.200	-51.376	
116.300	-36.797	
116.400	-40.954	
116.500	-34.426	
116.600	-33.100	
116.700	-30.896	
116.800	-46.146	
116.900	-35.334	
117.000	-29.861	
117.100	-35.961	
117.200	-41.715	
117.300	-31.342	
117.400	-38.204	
117.500	-55.855	
117.600	-26.005	
117.700	-19.026	
117.800	-27.081	
117.900	-35.079	
118.000	-24.725	
118.100	-27.838	
118.200	-38.406	
118.300	-36.107	
118.400	-38.350	
118.500	-21.203	
118.600	-41.450	
118.700	-37.142	
118.800	-35.533	
118.900	-41.116	
119.000	-20.843	
119.100	-39.152	
119.200	-32.299	
119.300	-38.612	
119.400	-46.016	
119.500	-24.652	
119.600	-31.910	
119.700	-36.862	
119.800	-34.508	
119.900	-20.379	
120.000	-34.829	
120.100	-22.282	
120.200	-30.528	
120.300	-39.120	
120.400	-26.185	
120.500	-52.482	
120.600	-37.578	
120.700	-36.415	
120.800	-29.437	
120.900	-31.291	
121.000	-22.746	
121.100	-30.336	
121.200	-41.374	
