time /s	I /nA	E /V
0.100	-24.999	0.100
0.200	-21.664	0.100
0.300	-18.266	0.100
0.400	-24.576	0.100
0.500	-21.496	0.100
0.600	-13.548	0.100
0.700	-23.414	0.100
0.800	-25.774	0.100
0.900	-22.842	0.100
1.000	-7.318	0.100
1.100	-28.487	0.100
1.200	-24.378	0.100
1.300	-29.824	0.100
1.400	-18.271	0.100
1.500	-19.578	0.100
1.600	-19.438	0.100
1.700	-31.466	0.100
1.800	-24.382	0.100
1.900	-24.756	0.100
2.000	-16.682	0.100
2.100	-23.436	0.100
2.200	-24.154	0.100
2.300	-11.456	0.100
2.400	-24.456	0.100
2.500	-23.349	0.100
2.600	-24.803	0.100
2.700	-8.250	0.100
2.800	-38.562	0.100
2.900	-13.912	0.100
3.000	-16.034	0.100
3.100	-21.551	0.100
3.200	-20.993	0.100
3.300	-13.494	0.100
3.400	-19.707	0.100
3.500	-29.192	0.100
3.600	-33.898	0.100
3.700	-18.538	0.100
3.800	-24.791	0.100
3.900	-19.288	0.100
4.000	-6.212	0.100
4.100	-21.104	0.100
4.200	-21.444	0.100
4.300	-25.646	0.100
4.400	-18.464	0.100
4.500	-17.144	0.100
4.600	-13.350	0.100
4.700	-33.057	0.100
4.800	-25.588	0.100
4.900	-21.887	0.100
5.000	-18.068	0.100
5.100	-17.113	0.100
5.200	-32.451	0.100
5.300	-16.193	0.100
5.400	-16.003	0.100
5.500	-23.073	0.100
5.600	-23.811	0.100
5.700	-20.425	0.100
5.800	-18.003	0.100
5.900	-26.676	0.100
6.000	-27.157	0.100
6.100	-24.770	0.100
6.200	-20.165	0.100
6.300	-25.962	0.100
6.400	-29.252	0.100
6.500	-37.038	0.100
6.600	-21.909	0.100
6.700	-2.709	0.100
6.800	-9.128	0.100
6.900	-25.165	0.100
7.000	-16.494	0.100
7.100	-21.453	0.100
7.200	-20.387	0.100
7.300	-18.374	0.100
7.400	-6.158	0.100
7.500	-18.230	0.100
7.600	-24.652	0.100
7.700	-27.798	0.100
7.800	-24.577	0.100
7.900	-14.260	0.100
8.000	-21.128	0.100
8.100	-27.118	0.100
8.200	-16.207	0.100
8.300	-26.214	0.100
8.400	-21.801	0.100
8.500	-21.012	0.100
8.600	-26.186	0.100
8.700	-25.634	0.100
8.800	-18.224	0.100
8.900	-18.315	0.100
9.000	-22.815	0.100
9.100	-17.695	0.100
9.200	-8.478	0.100
9.300	-19.187	0.100
9.400	-20.574	0.100
9.500	-29.745	0.100
9.600	-29.801	0.100
9.700	-22.041	0.100
9.800	-10.524	0.100
9.900	-17.474	0.100
10.000	-22.461	0.100
10.100	-12.687	0.100
10.200	-15.602	0.100
10.300	-17.713	0.100
10.400	-24.092	0.100
10.500	-29.778	0.100
10.600	-26.327	0.100
10.700	-28.922	0.100
10.800	-14.678	0.100
10.900	-14.999	0.100
11.000	-15.711	0.100
11.100	-16.338	0.100
11.200	-34.767	0.100
11.300	-17.649	0.100
11.400	-15.015	0.100
11.500	-25.626	0.100
11.600	-19.422	0.100
11.700	-29.207	0.100
11.800	-25.878	0.100
11.900	-22.963	0.100
12.000	-16.301	0.100
12.100	-22.152	0.100
12.200	-16.849	0.100
12.300	-22.446	0.100
12.400	-26.744	0.100
12.500	-27.878	0.100
12.600	-36.889	0.100
12.700	-5.986	0.100
12.800	-22.852	0.100
12.900	-24.132	0.100
13.000	-16.467	0.100
13.100	-25.475	0.100
13.200	-17.260	0.100
13.300	-23.496	0.100
13.400	-28.156	0.100
13.500	-28.045	0.100
13.600	-22.026	0.100
13.700	-21.090	0.100
13.800	-18.757	0.100
13.900	-22.804	0.100
14.000	-29.845	0.100
14.100	-13.406	0.100
14.200	-18.056	0.100
14.300	-20.919	0.100
14.400	-21.208	0.100
14.500	-15.925	0.100
14.600	-20.982	0.100
14.700	-29.532	0.100
14.800	-24.429	0.100
14.900	-15.231	0.100
15.000	-14.594	0.100
15.100	-20.448	0.100
15.200	-19.554	0.100
15.300	-33.851	0.100
15.400	-19.927	0.100
15.500	-13.970	0.100
15.600	-10.751	0.100
15.700	-15.190	0.100
15.800	-22.701	0.100
15.900	-23.105	0.100
16.000	-22.497	0.100
16.100	-11.636	0.100
16.200	-27.245	0.100
16.300	-18.264	0.100
16.400	-22.339	0.100
16.500	-31.006	0.100
16.600	-18.335	0.100
16.700	-19.840	0.100
16.800	-15.615	0.100
16.900	-15.524	0.100
17.000	-23.503	0.100
17.100	-21.384	0.100
17.200	-26.064	0.100
17.300	-10.772	0.100
17.400	-14.226	0.100
17.500	-28.174	0.100
17.600	-34.420	0.100
17.700	-20.053	0.100
17.800	-20.638	0.100
17.900	-22.619	0.100
18.000	-6.187	0.100
18.100	-13.983	0.100
18.200	-19.868	0.100
18.300	-28.264	0.100
18.400	-17.119	0.100
18.500	-28.018	0.100
18.600	-17.038	0.100
18.700	-19.467	0.100
18.800	-28.879	0.100
18.900	-15.315	0.100
19.000	-15.315	0.100
19.100	-34.767	0.100
19.200	-21.612	0.100
19.300	-18.055	0.100
19.400	-17.594	0.100
19.500	-32.052	0.100
19.600	-18.836	0.100
19.700	-21.943	0.100
19.800	-16.777	0.100
19.900	-24.120	0.100
20.000	-29.014	0.100
20.100	-21.982	0.100
20.200	-20.411	0.100
20.300	-25.790	0.100
20.400	-14.558	0.100
20.500	-33.330	0.100
20.600	-13.931	0.100
20.700	-22.805	0.100
20.800	-22.264	0.100
20.900	-16.218	0.100
21.000	-2.034	0.100
21.100	-29.549	0.100
21.200	-4.421	0.100
21.300	-24.804	0.100
21.400	-20.967	0.100
21.500	-25.327	0.100
21.600	-16.608	0.100
21.700	-27.923	0.100
21.800	-14.682	0.100
21.900	-19.688	0.100
22.000	-17.352	0.100
22.100	-17.141	0.100
22.200	-23.385	0.100
22.300	-21.049	0.100
22.400	-18.769	0.100
22.500	-24.977	0.100
22.600	-16.658	0.100
22.700	-21.731	0.100
22.800	-21.757	0.100
22.900	-23.873	0.100
23.000	-31.075	0.100
23.100	-20.958	0.100
23.200	-12.547	0.100
23.300	-15.539	0.100
23.400	-24.484	0.100
23.500	-22.252	0.100
23.600	-30.424	0.100
23.700	-20.849	0.100
23.800	-25.585	0.100
23.900	-6.099	0.100
24.000	-18.176	0.100
24.100	-20.909	0.100
24.200	-14.729	0.100
24.300	-18.042	0.100
24.400	-19.176	0.100
24.500	-26.194	0.100
24.600	-28.574	0.100
24.700	-20.724	0.100
24.800	-32.549	0.100
24.900	-14.718	0.100
25.000	-12.260	0.100
25.100	-27.166	0.100
25.200	-27.401	0.100
25.300	-21.435	0.100
25.400	-10.075	0.100
25.500	-14.574	0.100
25.600	-34.750	0.100
25.700	-12.993	0.100
25.800	-13.114	0.100
25.900	-25.953	0.100
26.000	-17.117	0.100
26.100	-23.888	0.100
26.200	-10.966	0.100
26.300	-17.944	0.100
26.400	-25.358	0.100
26.500	-21.673	0.100
26.600	-17.229	0.100
26.700	-18.419	0.100
26.800	-19.059	0.100
26.900	-14.636	0.100
27.000	-28.454	0.100
27.100	-23.159	0.100
27.200	-25.459	0.100
27.300	-17.639	0.100
27.400	-27.019	0.100
27.500	-15.062	0.100
27.600	-32.135	0.100
27.700	-25.729	0.100
27.800	-16.713	0.100
27.900	-18.801	0.100
28.000	-16.580	0.100
28.100	-23.882	0.100
28.200	-20.591	0.100
28.300	-25.603	0.100
28.400	-21.841	0.100
28.500	-12.354	0.100
28.600	-34.442	0.100
28.700	-23.473	0.100
28.800	-39.141	0.100
28.900	-16.691	0.100
29.000	-7.731	0.100
29.100	-9.012	0.100
29.200	-12.389	0.100
29.300	-25.993	0.100
29.400	-24.976	0.100
29.500	-25.707	0.100
29.600	-33.327	0.100
29.700	-0.771	0.100
29.800	-12.151	0.100
29.900	-36.212	0.100
30.000	-29.127	0.100
30.100	-11.178	0.100
30.200	-17.934	0.100
30.300	-8.681	0.100
30.400	9.200	0.100
30.500	8.530	0.100
30.600	14.440	0.100
30.700	37.074	0.100
30.800	42.539	0.100
30.900	49.234	0.100
31.000	51.594	0.100
31.100	42.961	0.100
31.200	52.836	0.100
31.300	61.738	0.100
31.400	68.876	0.100
31.500	59.807	0.100
31.600	60.764	0.100
31.700	43.321	0.100
31.800	53.207	0.100
31.900	65.525	0.100
32.000	64.296	0.100
32.100	53.666	0.100
32.200	61.634	0.100
32.300	52.901	0.100
32.400	53.149	0.100
32.500	57.918	0.100
32.600	49.167	0.100
32.700	45.487	0.100
32.800	60.363	0.100
32.900	45.991	0.100
33.000	40.200	0.100
33.100	45.042	0.100
33.200	53.602	0.100
33.300	57.159	0.100
33.400	41.104	0.100
33.500	33.832	0.100
33.600	43.347	0.100
33.700	51.545	0.100
33.800	46.656	0.100
33.900	38.632	0.100
34.000	39.118	0.100
34.100	19.457	0.100
34.200	28.496	0.100
34.300	52.120	0.100
34.400	49.346	0.100
34.500	37.202	0.100
34.600	34.904	0.100
34.700	46.575	0.100
34.800	36.550	0.100
34.900	45.149	0.100
35.000	53.496	0.100
35.100	44.853	0.100
35.200	46.147	0.100
35.300	41.017	0.100
35.400	42.858	0.100
35.500	49.375	0.100
35.600	58.452	0.100
35.700	43.908	0.100
35.800	51.334	0.100
35.900	63.021	0.100
36.000	56.049	0.100
36.100	61.255	0.100
36.200	55.174	0.100
36.300	49.174	0.100
36.400	58.993	0.100
36.500	57.361	0.100
36.600	66.451	0.100
36.700	58.778	0.100
36.800	67.231	0.100
36.900	71.461	0.100
37.000	80.457	0.100
37.100	76.727	0.100
37.200	75.616	0.100
37.300	69.036	0.100
37.400	50.921	0.100
37.500	84.024	0.100
37.600	75.669	0.100
37.700	71.448	0.100
37.800	78.334	0.100
37.900	80.467	0.100
38.000	61.821	0.100
38.100	79.842	0.100
38.200	81.489	0.100
38.300	75.236	0.100
38.400	74.586	0.100
38.500	86.598	0.100
38.600	91.562	0.100
38.700	73.161	0.100
38.800	58.034	0.100
38.900	82.483	0.100
39.000	83.724	0.100
39.100	64.900	0.100
39.200	97.479	0.100
39.300	89.046	0.100
39.400	82.015	0.100
39.500	82.775	0.100
39.600	87.146	0.100
39.700	72.589	0.100
39.800	77.792	0.100
39.900	84.076	0.100
40.000	81.584	0.100
40.100	74.542	0.100
40.200	86.931	0.100
40.300	79.781	0.100
40.400	79.904	0.100
40.500	83.074	0.100
40.600	75.317	0.100
40.700	77.235	0.100
40.800	87.857	0.100
40.900	82.347	0.100
41.000	80.673	0.100
41.100	76.779	0.100
41.200	79.224	0.100
41.300	81.862	0.100
41.400	83.700	0.100
41.500	79.176	0.100
41.600	76.681	0.100
41.700	70.797	0.100
41.800	81.480	0.100
41.900	78.713	0.100
42.000	80.474	0.100
42.100	71.423	0.100
42.200	80.547	0.100
42.300	74.785	0.100
42.400	74.969	0.100
42.500	90.769	0.100
42.600	81.461	0.100
42.700	77.223	0.100
42.800	89.317	0.100
42.900	84.255	0.100
43.000	69.266	0.100
43.100	85.473	0.100
43.200	85.463	0.100
43.300	80.095	0.100
43.400	76.489	0.100
43.500	83.939	0.100
43.600	80.608	0.100
43.700	93.359	0.100
43.800	85.210	0.100
43.900	68.613	0.100
44.000	80.188	0.100
44.100	72.883	0.100
44.200	76.537	0.100
44.300	79.995	0.100
44.400	76.062	0.100
44.500	79.652	0.100
44.600	87.777	0.100
44.700	93.602	0.100
44.800	77.516	0.100
44.900	69.000	0.100
45.000	78.544	0.100
45.100	76.120	0.100
45.200	76.610	0.100
45.300	72.799	0.100
45.400	78.703	0.100
45.500	79.025	0.100
45.600	72.458	0.100
45.700	80.783	0.100
45.800	81.213	0.100
45.900	85.028	0.100
46.000	75.784	0.100
46.100	66.764	0.100
46.200	65.293	0.100
46.300	84.972	0.100
46.400	82.798	0.100
46.500	84.315	0.100
46.600	80.887	0.100
46.700	76.457	0.100
46.800	82.830	0.100
46.900	77.965	0.100
47.000	85.619	0.100
47.100	84.175	0.100
47.200	72.954	0.100
47.300	68.044	0.100
47.400	64.486	0.100
47.500	81.338	0.100
47.600	81.462	0.100
47.700	77.977	0.100
47.800	77.330	0.100
47.900	80.703	0.100
48.000	76.243	0.100
48.100	88.957	0.100
48.200	80.338	0.100
48.300	83.839	0.100
48.400	82.722	0.100
48.500	70.085	0.100
48.600	64.359	0.100
48.700	69.309	0.100
48.800	63.626	0.100
48.900	84.833	0.100
49.000	78.029	0.100
49.100	82.238	0.100
49.200	76.593	0.100
49.300	83.806	0.100
49.400	76.203	0.100
49.500	79.905	0.100
49.600	75.485	0.100
49.700	73.074	0.100
49.800	74.385	0.100
49.900	74.921	0.100
50.000	70.761	0.100
50.100	75.959	0.100
50.200	74.192	0.100
50.300	71.778	0.100
50.400	71.227	0.100
50.500	83.779	0.100
50.600	83.811	0.100
50.700	68.019	0.100
50.800	59.024	0.100
50.900	74.348	0.100
51.000	60.143	0.100
51.100	78.198	0.100
51.200	73.717	0.100
51.300	68.756	0.100
51.400	76.508	0.100
51.500	77.791	0.100
51.600	74.846	0.100
51.700	69.776	0.100
51.800	75.974	0.100
51.900	79.213	0.100
52.000	74.750	0.100
52.100	75.171	0.100
52.200	73.479	0.100
52.300	63.330	0.100
52.400	61.434	0.100
52.500	65.750	0.100
52.600	74.486	0.100
52.700	67.630	0.100
52.800	70.500	0.100
52.900	70.326	0.100
53.000	80.855	0.100
53.100	72.742	0.100
53.200	63.086	0.100
53.300	61.492	0.100
53.400	63.177	0.100
53.500	59.867	0.100
53.600	79.500	0.100
53.700	73.429	0.100
53.800	74.380	0.100
53.900	61.789	0.100
54.000	68.837	0.100
54.100	69.400	0.100
54.200	60.648	0.100
54.300	67.990	0.100
54.400	67.496	0.100
54.500	69.943	0.100
54.600	62.304	0.100
54.700	73.032	0.100
54.800	70.031	0.100
54.900	65.227	0.100
55.000	61.050	0.100
55.100	71.015	0.100
55.200	69.049	0.100
55.300	65.777	0.100
55.400	66.444	0.100
55.500	69.330	0.100
55.600	71.628	0.100
55.700	75.257	0.100
55.800	66.264	0.100
55.900	62.609	0.100
56.000	62.914	0.100
56.100	70.536	0.100
56.200	65.683	0.100
56.300	63.583	0.100
56.400	71.349	0.100
56.500	62.381	0.100
56.600	56.852	0.100
56.700	69.526	0.100
56.800	61.866	0.100
56.900	75.782	0.100
57.000	77.388	0.100
57.100	69.056	0.100
57.200	56.362	0.100
57.300	71.102	0.100
57.400	58.337	0.100
57.500	55.244	0.100
57.600	61.280	0.100
57.700	77.168	0.100
57.800	71.501	0.100
57.900	61.620	0.100
58.000	68.582	0.100
58.100	68.570	0.100
58.200	53.944	0.100
58.300	65.082	0.100
58.400	77.140	0.100
58.500	51.459	0.100
58.600	58.608	0.100
58.700	72.340	0.100
58.800	63.403	0.100
58.900	57.797	0.100
59.000	63.188	0.100
59.100	60.958	0.100
59.200	68.512	0.100
59.300	64.682	0.100
59.400	52.333	0.100
59.500	59.306	0.100
59.600	60.628	0.100
59.700	53.061	0.100
59.800	67.674	0.100
59.900	58.240	0.100
60.000	58.144	0.100
60.100	67.056	0.100
60.200	58.352	0.100
60.300	79.026	0.100
60.400	63.762	0.100
60.500	63.626	0.100
60.600	69.198	0.100
60.700	57.342	0.100
60.800	67.544	0.100
60.900	56.684	0.100
61.000	75.500	0.100
61.100	66.622	0.100
61.200	68.681	0.100
61.300	59.147	0.100
61.400	60.438	0.100
61.500	55.538	0.100
61.600	60.585	0.100
61.700	64.341	0.100
61.800	66.126	0.100
61.900	64.191	0.100
62.000	69.593	0.100
62.100	62.720	0.100
62.200	64.339	0.100
62.300	65.272	0.100
62.400	63.908	0.100
62.500	60.429	0.100
62.600	70.836	0.100
62.700	63.388	0.100
62.800	62.403	0.100
62.900	63.726	0.100
63.000	71.208	0.100
63.100	60.196	0.100
63.200	70.866	0.100
63.300	65.046	0.100
63.400	64.937	0.100
63.500	65.368	0.100
63.600	63.844	0.100
63.700	67.919	0.100
63.800	58.237	0.100
63.900	59.290	0.100
64.000	52.660	0.100
64.100	67.920	0.100
64.200	64.754	0.100
64.300	63.153	0.100
64.400	66.341	0.100
64.500	49.834	0.100
64.600	53.473	0.100
64.700	70.217	0.100
64.800	56.715	0.100
64.900	51.558	0.100
65.000	71.462	0.100
65.100	69.705	0.100
65.200	66.464	0.100
65.300	62.969	0.100
65.400	66.515	0.100
65.500	64.150	0.100
65.600	59.357	0.100
65.700	61.588	0.100
65.800	58.848	0.100
65.900	60.996	0.100
66.000	74.078	0.100
66.100	67.365	0.100
66.200	72.315	0.100
66.300	64.447	0.100
66.400	63.664	0.100
66.500	67.250	0.100
66.600	63.631	0.100
66.700	59.653	0.100
66.800	64.294	0.100
66.900	57.174	0.100
67.000	61.411	0.100
67.100	55.892	0.100
67.200	77.716	0.100
67.300	71.406	0.100
67.400	56.058	0.100
67.500	60.709	0.100
67.600	71.988	0.100
67.700	71.679	0.100
67.800	57.087	0.100
67.900	71.937	0.100
68.000	74.375	0.100
68.100	57.067	0.100
68.200	60.530	0.100
68.300	62.539	0.100
68.400	62.984	0.100
68.500	60.339	0.100
68.600	65.933	0.100
68.700	62.542	0.100
68.800	58.666	0.100
68.900	77.724	0.100
69.000	63.731	0.100
69.100	54.444	0.100
69.200	64.065	0.100
69.300	73.484	0.100
69.400	76.053	0.100
69.500	66.678	0.100
69.600	65.234	0.100
69.700	61.663	0.100
69.800	58.715	0.100
69.900	66.731	0.100
70.000	60.514	0.100
70.100	59.552	0.100
70.200	77.424	0.100
70.300	72.366	0.100
70.400	57.362	0.100
70.500	65.500	0.100
70.600	57.009	0.100
70.700	67.111	0.100
70.800	66.344	0.100
70.900	67.379	0.100
71.000	63.041	0.100
71.100	68.910	0.100
71.200	73.568	0.100
71.300	67.222	0.100
71.400	61.895	0.100
71.500	70.352	0.100
71.600	58.729	0.100
71.700	71.257	0.100
71.800	70.077	0.100
71.900	67.119	0.100
72.000	62.918	0.100
72.100	68.163	0.100
72.200	59.621	0.100
72.300	57.043	0.100
72.400	69.666	0.100
72.500	63.037	0.100
72.600	71.407	0.100
72.700	69.114	0.100
72.800	58.666	0.100
72.900	67.020	0.100
73.000	79.389	0.100
73.100	70.602	0.100
73.200	70.430	0.100
73.300	55.368	0.100
73.400	68.390	0.100
73.500	68.693	0.100
73.600	68.674	0.100
73.700	70.996	0.100
73.800	60.151	0.100
73.900	79.103	0.100
74.000	69.389	0.100
74.100	64.248	0.100
74.200	68.132	0.100
74.300	70.080	0.100
74.400	64.141	0.100
74.500	73.898	0.100
74.600	64.153	0.100
74.700	64.893	0.100
74.800	72.050	0.100
74.900	71.223	0.100
75.000	58.796	0.100
75.100	77.665	0.100
75.200	71.527	0.100
75.300	65.823	0.100
75.400	69.870	0.100
75.500	60.063	0.100
75.600	70.373	0.100
75.700	58.830	0.100
75.800	55.181	0.100
75.900	53.369	0.100
76.000	65.446	0.100
76.100	75.685	0.100
76.200	66.218	0.100
76.300	67.360	0.100
76.400	64.529	0.100
76.500	59.171	0.100
76.600	59.010	0.100
76.700	69.075	0.100
76.800	66.679	0.100
76.900	71.752	0.100
77.000	80.540	0.100
77.100	73.027	0.100
77.200	76.916	0.100
77.300	72.493	0.100
77.400	55.887	0.100
77.500	77.926	0.100
77.600	68.294	0.100
77.700	75.143	0.100
77.800	72.588	0.100
77.900	72.449	0.100
78.000	60.354	0.100
78.100	72.419	0.100
78.200	80.834	0.100
78.300	59.091	0.100
78.400	71.434	0.100
78.500	69.269	0.100
78.600	62.935	0.100
78.700	56.920	0.100
78.800	73.818	0.100
78.900	64.513	0.100
79.000	72.265	0.100
79.100	59.945	0.100
79.200	66.721	0.100
79.300	74.126	0.100
79.400	58.376	0.100
79.500	71.225	0.100
79.600	69.691	0.100
79.700	68.008	0.100
79.800	65.084	0.100
79.900	79.498	0.100
80.000	63.911	0.100
80.100	55.507	0.100
80.200	67.553	0.100
80.300	61.188	0.100
80.400	77.588	0.100
80.500	64.598	0.100
80.600	79.405	0.100
80.700	70.671	0.100
80.800	78.806	0.100
80.900	72.366	0.100
81.000	69.729	0.100
81.100	66.154	0.100
81.200	81.597	0.100
81.300	67.173	0.100
81.400	77.243	0.100
81.500	64.918	0.100
81.600	72.208	0.100
81.700	68.986	0.100
81.800	79.472	0.100
81.900	60.111	0.100
82.000	61.242	0.100
82.100	64.959	0.100
82.200	76.896	0.100
82.300	78.426	0.100
82.400	72.693	0.100
82.500	66.138	0.100
82.600	65.124	0.100
82.700	70.534	0.100
82.800	76.074	0.100
82.900	61.237	0.100
83.000	74.022	0.100
83.100	72.700	0.100
83.200	66.173	0.100
83.300	70.608	0.100
83.400	73.480	0.100
83.500	71.401	0.100
83.600	73.018	0.100
83.700	83.822	0.100
83.800	72.834	0.100
83.900	71.987	0.100
84.000	74.164	0.100
84.100	72.916	0.100
84.200	75.231	0.100
84.300	65.874	0.100
84.400	71.597	0.100
84.500	64.153	0.100
84.600	63.502	0.100
84.700	64.749	0.100
84.800	77.247	0.100
84.900	73.153	0.100
85.000	67.093	0.100
85.100	78.659	0.100
85.200	69.644	0.100
85.300	76.889	0.100
85.400	63.629	0.100
85.500	71.413	0.100
85.600	60.090	0.100
85.700	73.189	0.100
85.800	73.399	0.100
85.900	72.542	0.100
86.000	71.796	0.100
86.100	70.728	0.100
86.200	67.802	0.100
86.300	60.695	0.100
86.400	73.046	0.100
86.500	72.104	0.100
86.600	77.150	0.100
86.700	74.048	0.100
86.800	66.658	0.100
86.900	71.813	0.100
87.000	64.208	0.100
87.100	86.213	0.100
87.200	75.243	0.100
87.300	60.570	0.100
87.400	76.702	0.100
87.500	76.188	0.100
87.600	68.622	0.100
87.700	76.079	0.100
87.800	78.180	0.100
87.900	66.085	0.100
88.000	76.945	0.100
88.100	77.324	0.100
88.200	75.936	0.100
88.300	80.748	0.100
88.400	66.274	0.100
88.500	71.182	0.100
88.600	70.263	0.100
88.700	75.197	0.100
88.800	69.145	0.100
88.900	75.982	0.100
89.000	72.964	0.100
89.100	78.980	0.100
89.200	68.836	0.100
89.300	72.223	0.100
89.400	77.100	0.100
89.500	75.291	0.100
89.600	80.177	0.100
89.700	77.277	0.100
89.800	68.258	0.100
89.900	75.591	0.100
90.000	80.174	0.100
90.100	77.011	0.100
90.200	64.543	0.100
90.300	58.389	0.100
90.400	52.450	0.100
90.500	35.131	0.100
90.600	21.454	0.100
90.700	32.998	0.100
90.800	20.192	0.100
90.900	-1.233	0.100
91.000	-0.096	0.100
91.100	-5.743	0.100
91.200	-9.246	0.100
91.300	-8.016	0.100
91.400	-19.766	0.100
91.500	-36.352	0.100
91.600	-29.073	0.100
91.700	-27.111	0.100
91.800	-23.590	0.100
91.900	-43.362	0.100
92.000	-38.537	0.100
92.100	-38.788	0.100
92.200	-46.024	0.100
92.300	-46.742	0.100
92.400	-45.640	0.100
92.500	-50.088	0.100
92.600	-49.298	0.100
92.700	-47.828	0.100
92.800	-48.222	0.100
92.900	-43.332	0.100
93.000	-45.163	0.100
93.100	-48.929	0.100
93.200	-56.353	0.100
93.300	-53.408	0.100
93.400	-50.851	0.100
93.500	-43.022	0.100
93.600	-39.342	0.100
93.700	-47.783	0.100
93.800	-46.564	0.100
93.900	-49.385	0.100
94.000	-39.931	0.100
94.100	-43.628	0.100
