time /s	I /nA	E /V
0.100	-24.583	0.100
0.200	-26.031	0.100
0.300	-11.579	0.100
0.400	-35.537	0.100
0.500	-31.211	0.100
0.600	-17.176	0.100
0.700	-31.770	0.100
0.800	-16.684	0.100
0.900	-14.739	0.100
1.000	-13.628	0.100
1.100	-27.260	0.100
1.200	-24.077	0.100
1.300	-22.812	0.100
1.400	-40.287	0.100
1.500	-18.430	0.100
1.600	-24.788	0.100
1.700	-35.491	0.100
1.800	-21.578	0.100
1.900	-11.901	0.100
2.000	-26.986	0.100
2.100	-24.515	0.100
2.200	-22.407	0.100
2.300	-16.316	0.100
2.400	-28.206	0.100
2.500	-21.889	0.100
2.600	-20.766	0.100
2.700	-32.330	0.100
2.800	-35.257	0.100
2.900	-17.836	0.100
3.000	-19.170	0.100
3.100	-16.247	0.100
3.200	-17.652	0.100
3.300	-15.737	0.100
3.400	-31.700	0.100
3.500	-29.226	0.100
3.600	-19.906	0.100
3.700	-20.864	0.100
3.800	-20.150	0.100
3.900	-33.760	0.100
4.000	-19.736	0.100
4.100	-26.705	0.100
4.200	-10.566	0.100
4.300	-18.354	0.100
4.400	-33.476	0.100
4.500	-17.683	0.100
4.600	-39.360	0.100
4.700	-28.592	0.100
4.800	-29.511	0.100
4.900	-11.853	0.100
5.000	-24.288	0.100
5.100	-14.593	0.100
5.200	-25.742	0.100
5.300	-27.108	0.100
5.400	-22.360	0.100
5.500	-20.954	0.100
5.600	-27.941	0.100
5.700	-23.946	0.100
5.800	-22.662	0.100
5.900	-18.392	0.100
6.000	-12.345	0.100
6.100	-17.671	0.100
6.200	-17.796	0.100
6.300	-25.847	0.100
6.400	-18.272	0.100
6.500	-27.532	0.100
6.600	-23.432	0.100
6.700	-24.363	0.100
6.800	-26.316	0.100
6.900	-31.112	0.100
7.000	-35.915	0.100
7.100	-25.009	0.100
7.200	-27.043	0.100
7.300	-17.994	0.100
7.400	-29.686	0.100
7.500	-23.304	0.100
7.600	-20.083	0.100
7.700	-14.563	0.100
7.800	-14.573	0.100
7.900	-27.268	0.100
8.000	-21.515	0.100
8.100	-27.017	0.100
8.200	-29.849	0.100
8.300	-21.240	0.100
8.400	-27.366	0.100
8.500	-22.717	0.100
8.600	-18.188	0.100
8.700	-33.102	0.100
8.800	-24.954	0.100
8.900	-28.359	0.100
9.000	-21.287	0.100
9.100	-21.119	0.100
9.200	-30.505	0.100
9.300	-26.079	0.100
9.400	-12.317	0.100
9.500	-18.134	0.100
9.600	-31.680	0.100
9.700	-16.551	0.100
9.800	-20.400	0.100
9.900	-14.585	0.100
10.000	-33.483	0.100
10.100	-28.211	0.100
10.200	-28.622	0.100
10.300	-19.419	0.100
10.400	-24.827	0.100
10.500	-24.437	0.100
10.600	-15.294	0.100
10.700	-19.388	0.100
10.800	-13.389	0.100
10.900	-27.447	0.100
11.000	-24.964	0.100
11.100	-30.964	0.100
11.200	-13.164	0.100
11.300	-8.775	0.100
11.400	-19.332	0.100
11.500	-23.778	0.100
11.600	-25.732	0.100
11.700	-29.940	0.100
11.800	-23.363	0.100
11.900	-4.578	0.100
12.000	-26.836	0.100
12.100	-23.391	0.100
12.200	-23.405	0.100
12.300	-15.338	0.100
12.400	-24.611	0.100
12.500	-10.665	0.100
12.600	-17.057	0.100
12.700	-24.184	0.100
12.800	-25.780	0.100
12.900	-21.199	0.100
13.000	-14.179	0.100
13.100	-18.809	0.100
13.200	-20.181	0.100
13.300	-29.193	0.100
13.400	-22.287	0.100
13.500	-22.420	0.100
13.600	-22.828	0.100
13.700	-29.429	0.100
13.800	-10.665	0.100
13.900	-23.214	0.100
14.000	-30.878	0.100
14.100	-19.429	0.100
14.200	-18.070	0.100
14.300	-25.435	0.100
14.400	-22.468	0.100
14.500	-26.528	0.100
14.600	-19.894	0.100
14.700	-20.084	0.100
14.800	-13.940	0.100
14.900	-19.883	0.100
15.000	-34.728	0.100
15.100	-31.208	0.100
15.200	-28.808	0.100
15.300	-18.605	0.100
15.400	-18.048	0.100
15.500	-22.396	0.100
15.600	-31.697	0.100
15.700	-19.076	0.100
15.800	-24.877	0.100
15.900	-23.243	0.100
16.000	-24.755	0.100
16.100	-20.654	0.100
16.200	-32.385	0.100
16.300	-28.756	0.100
16.400	-19.484	0.100
16.500	-17.452	0.100
16.600	-15.878	0.100
16.700	-14.584	0.100
16.800	-15.219	0.100
16.900	-31.790	0.100
17.000	-22.295	0.100
17.100	-13.718	0.100
17.200	-14.099	0.100
17.300	-18.563	0.100
17.400	-32.278	0.100
17.500	-25.442	0.100
17.600	-26.883	0.100
17.700	-23.117	0.100
17.800	-21.176	0.100
17.900	-21.483	0.100
18.000	-25.429	0.100
18.100	-32.550	0.100
18.200	-21.019	0.100
18.300	-19.229	0.100
18.400	-31.933	0.100
18.500	-14.058	0.100
18.600	-28.946	0.100
18.700	-25.689	0.100
18.800	-29.909	0.100
18.900	-16.079	0.100
19.000	-15.796	0.100
19.100	-23.868	0.100
19.200	-28.574	0.100
19.300	-26.953	0.100
19.400	-24.953	0.100
19.500	-18.246	0.100
19.600	-25.644	0.100
19.700	-28.605	0.100
19.800	-35.170	0.100
19.900	-23.592	0.100
20.000	-21.653	0.100
20.100	-12.507	0.100
20.200	-20.050	0.100
20.300	-23.259	0.100
20.400	-29.788	0.100
20.500	-25.437	0.100
20.600	-23.553	0.100
20.700	-22.414	0.100
20.800	-20.802	0.100
20.900	-26.925	0.100
21.000	-16.993	0.100
21.100	-18.358	0.100
21.200	-10.856	0.100
21.300	-21.204	0.100
21.400	-15.826	0.100
21.500	-36.667	0.100
21.600	-41.102	0.100
21.700	-19.333	0.100
21.800	-34.584	0.100
21.900	-25.464	0.100
22.000	-24.643	0.100
22.100	-16.462	0.100
22.200	-23.173	0.100
22.300	-21.134	0.100
22.400	-26.410	0.100
22.500	-21.016	0.100
22.600	-25.813	0.100
22.700	-27.442	0.100
22.800	-19.020	0.100
22.900	-28.081	0.100
23.000	-19.378	0.100
23.100	-16.021	0.100
23.200	-28.925	0.100
23.300	-17.113	0.100
23.400	-31.717	0.100
23.500	-17.937	0.100
23.600	-17.629	0.100
23.700	-17.513	0.100
23.800	-37.343	0.100
23.900	-15.326	0.100
24.000	-30.638	0.100
24.100	-25.710	0.100
24.200	-22.702	0.100
24.300	-11.231	0.100
24.400	-25.216	0.100
24.500	-24.082	0.100
24.600	-26.191	0.100
24.700	-28.358	0.100
24.800	-23.318	0.100
24.900	-29.009	0.100
25.000	-26.993	0.100
25.100	-36.104	0.100
25.200	-26.131	0.100
25.300	-7.176	0.100
25.400	-3.874	0.100
25.500	-22.107	0.100
25.600	-26.305	0.100
25.700	-23.901	0.100
25.800	-36.381	0.100
25.900	-17.455	0.100
26.000	-16.311	0.100
26.100	-18.615	0.100
26.200	-9.969	0.100
26.300	-23.181	0.100
26.400	-27.643	0.100
26.500	-20.745	0.100
26.600	-12.911	0.100
26.700	-16.962	0.100
26.800	-27.590	0.100
26.900	-22.826	0.100
27.000	-34.041	0.100
27.100	-25.622	0.100
27.200	-16.506	0.100
27.300	-26.358	0.100
27.400	-21.669	0.100
27.500	-25.839	0.100
27.600	-13.321	0.100
27.700	-14.370	0.100
27.800	-37.779	0.100
27.900	-14.384	0.100
28.000	-20.847	0.100
28.100	-17.481	0.100
28.200	-12.972	0.100
28.300	-8.507	0.100
28.400	-13.041	0.100
28.500	-31.848	0.100
28.600	-31.647	0.100
28.700	-11.424	0.100
28.800	-19.209	0.100
28.900	-8.499	0.100
29.000	-6.998	0.100
29.100	-25.287	0.100
29.200	-31.601	0.100
29.300	-20.730	0.100
29.400	-18.938	0.100
29.500	-13.738	0.100
29.600	-30.246	0.100
29.700	-32.281	0.100
29.800	-18.658	0.100
29.900	-17.167	0.100
30.000	2.964	0.100
30.100	3.344	0.100
30.200	7.870	0.100
30.300	-6.384	0.100
30.400	-0.640	0.100
30.500	1.444	0.100
30.600	12.927	0.100
30.700	6.374	0.100
30.800	13.015	0.100
30.900	17.948	0.100
31.000	-0.328	0.100
31.100	19.523	0.100
31.200	-1.557	0.100
31.300	22.225	0.100
31.400	10.479	0.100
31.500	13.288	0.100
31.600	9.548	0.100
31.700	3.588	0.100
31.800	20.493	0.100
31.900	19.700	0.100
32.000	5.460	0.100
32.100	7.873	0.100
32.200	20.659	0.100
32.300	12.508	0.100
32.400	17.555	0.100
32.500	4.105	0.100
32.600	12.769	0.100
32.700	3.228	0.100
32.800	4.235	0.100
32.900	10.529	0.100
33.000	-6.196	0.100
33.100	2.193	0.100
33.200	17.103	0.100
33.300	6.409	0.100
33.400	13.821	0.100
33.500	-1.338	0.100
33.600	11.606	0.100
33.700	-6.789	0.100
33.800	6.096	0.100
33.900	5.725	0.100
34.000	3.936	0.100
34.100	18.935	0.100
34.200	5.921	0.100
34.300	1.237	0.100
34.400	-4.205	0.100
34.500	7.606	0.100
34.600	1.886	0.100
34.700	7.088	0.100
34.800	3.086	0.100
34.900	4.920	0.100
35.000	-8.464	0.100
35.100	2.295	0.100
35.200	11.341	0.100
35.300	11.374	0.100
35.400	1.569	0.100
35.500	3.229	0.100
35.600	-5.494	0.100
35.700	9.211	0.100
35.800	-10.489	0.100
35.900	11.406	0.100
36.000	4.328	0.100
36.100	-1.001	0.100
36.200	-7.203	0.100
36.300	11.311	0.100
36.400	11.413	0.100
36.500	5.349	0.100
36.600	9.236	0.100
36.700	-3.436	0.100
36.800	6.549	0.100
36.900	2.696	0.100
37.000	8.046	0.100
37.100	9.083	0.100
37.200	-0.216	0.100
37.300	-5.893	0.100
37.400	-0.052	0.100
37.500	0.139	0.100
37.600	11.172	0.100
37.700	8.654	0.100
37.800	27.639	0.100
37.900	14.608	0.100
38.000	-5.085	0.100
38.100	3.632	0.100
38.200	3.511	0.100
38.300	3.822	0.100
38.400	5.675	0.100
38.500	-0.155	0.100
38.600	17.940	0.100
38.700	10.298	0.100
38.800	-0.270	0.100
38.900	11.842	0.100
39.000	26.904	0.100
39.100	-0.559	0.100
39.200	14.803	0.100
39.300	7.236	0.100
39.400	8.100	0.100
39.500	17.487	0.100
39.600	14.070	0.100
39.700	6.464	0.100
39.800	10.242	0.100
39.900	11.716	0.100
40.000	9.919	0.100
40.100	1.031	0.100
40.200	19.045	0.100
40.300	21.756	0.100
40.400	7.290	0.100
40.500	17.757	0.100
40.600	18.587	0.100
40.700	19.998	0.100
40.800	10.803	0.100
40.900	5.897	0.100
41.000	18.049	0.100
41.100	25.589	0.100
41.200	14.416	0.100
41.300	16.261	0.100
41.400	12.916	0.100
41.500	12.825	0.100
41.600	10.101	0.100
41.700	15.928	0.100
41.800	24.715	0.100
41.900	8.286	0.100
42.000	17.588	0.100
42.100	14.050	0.100
42.200	18.505	0.100
42.300	15.552	0.100
42.400	4.199	0.100
42.500	22.381	0.100
42.600	19.644	0.100
42.700	10.585	0.100
42.800	8.866	0.100
42.900	19.928	0.100
43.000	20.552	0.100
43.100	33.392	0.100
43.200	10.002	0.100
43.300	19.153	0.100
43.400	9.157	0.100
43.500	20.183	0.100
43.600	18.351	0.100
43.700	23.623	0.100
43.800	23.368	0.100
43.900	21.987	0.100
44.000	19.999	0.100
44.100	23.562	0.100
44.200	30.486	0.100
44.300	9.263	0.100
44.400	12.001	0.100
44.500	13.018	0.100
44.600	17.384	0.100
44.700	38.558	0.100
44.800	17.649	0.100
44.900	26.834	0.100
45.000	23.843	0.100
45.100	13.324	0.100
45.200	23.894	0.100
45.300	37.544	0.100
45.400	24.098	0.100
45.500	17.052	0.100
45.600	13.114	0.100
45.700	16.351	0.100
45.800	25.885	0.100
45.900	33.556	0.100
46.000	28.160	0.100
46.100	20.617	0.100
46.200	31.161	0.100
46.300	27.416	0.100
46.400	26.866	0.100
46.500	36.741	0.100
46.600	24.154	0.100
46.700	32.375	0.100
46.800	31.671	0.100
46.900	20.116	0.100
47.000	30.524	0.100
47.100	25.932	0.100
47.200	33.355	0.100
47.300	27.714	0.100
47.400	32.793	0.100
47.500	28.600	0.100
47.600	21.367	0.100
47.700	43.365	0.100
47.800	20.796	0.100
47.900	21.432	0.100
48.000	13.072	0.100
48.100	30.726	0.100
48.200	33.505	0.100
48.300	30.241	0.100
48.400	20.249	0.100
48.500	38.809	0.100
48.600	26.100	0.100
48.700	39.438	0.100
48.800	22.514	0.100
48.900	35.072	0.100
49.000	27.365	0.100
49.100	34.252	0.100
49.200	23.127	0.100
49.300	33.639	0.100
49.400	21.660	0.100
49.500	33.254	0.100
49.600	33.100	0.100
49.700	28.447	0.100
49.800	42.991	0.100
49.900	38.512	0.100
50.000	37.875	0.100
50.100	32.019	0.100
50.200	24.959	0.100
50.300	37.985	0.100
50.400	39.962	0.100
50.500	42.264	0.100
50.600	43.567	0.100
50.700	34.760	0.100
50.800	33.436	0.100
50.900	21.907	0.100
51.000	34.803	0.100
51.100	39.226	0.100
51.200	42.392	0.100
51.300	45.726	0.100
51.400	36.653	0.100
51.500	34.521	0.100
51.600	42.175	0.100
51.700	41.359	0.100
51.800	41.257	0.100
51.900	28.587	0.100
52.000	31.698	0.100
52.100	31.860	0.100
52.200	45.754	0.100
52.300	46.206	0.100
52.400	42.405	0.100
52.500	35.942	0.100
52.600	34.257	0.100
52.700	30.001	0.100
52.800	48.227	0.100
52.900	36.063	0.100
53.000	37.659	0.100
53.100	48.254	0.100
53.200	38.098	0.100
53.300	24.804	0.100
53.400	44.653	0.100
53.500	48.133	0.100
53.600	45.655	0.100
53.700	46.990	0.100
53.800	30.016	0.100
53.900	46.312	0.100
54.000	53.898	0.100
54.100	45.534	0.100
54.200	40.583	0.100
54.300	54.806	0.100
54.400	36.966	0.100
54.500	32.968	0.100
54.600	37.747	0.100
54.700	53.635	0.100
54.800	38.383	0.100
54.900	41.914	0.100
55.000	42.543	0.100
55.100	44.772	0.100
55.200	45.535	0.100
55.300	44.502	0.100
55.400	42.307	0.100
55.500	36.001	0.100
55.600	47.419	0.100
55.700	38.761	0.100
55.800	50.305	0.100
55.900	44.547	0.100
56.000	48.145	0.100
56.100	40.127	0.100
56.200	52.038	0.100
56.300	42.784	0.100
56.400	42.834	0.100
56.500	38.906	0.100
56.600	57.480	0.100
56.700	31.451	0.100
56.800	32.823	0.100
56.900	52.443	0.100
57.000	38.454	0.100
57.100	32.841	0.100
57.200	43.931	0.100
57.300	54.379	0.100
57.400	49.235	0.100
57.500	42.298	0.100
57.600	49.445	0.100
57.700	43.033	0.100
57.800	41.154	0.100
57.900	44.132	0.100
58.000	39.414	0.100
58.100	59.664	0.100
58.200	55.767	0.100
58.300	45.660	0.100
58.400	36.823	0.100
58.500	39.169	0.100
58.600	45.890	0.100
58.700	51.731	0.100
58.800	61.053	0.100
58.900	41.233	0.100
59.000	40.369	0.100
59.100	53.642	0.100
59.200	37.732	0.100
59.300	47.811	0.100
59.400	49.778	0.100
59.500	45.356	0.100
59.600	33.159	0.100
59.700	31.169	0.100
59.800	40.328	0.100
59.900	38.190	0.100
60.000	37.744	0.100
60.100	46.003	0.100
60.200	44.204	0.100
60.300	48.453	0.100
60.400	53.025	0.100
60.500	45.297	0.100
60.600	51.112	0.100
60.700	46.518	0.100
60.800	40.211	0.100
60.900	35.992	0.100
61.000	49.341	0.100
61.100	49.138	0.100
61.200	56.452	0.100
61.300	38.289	0.100
61.400	47.333	0.100
61.500	40.487	0.100
61.600	44.059	0.100
61.700	46.513	0.100
61.800	43.655	0.100
61.900	54.251	0.100
62.000	46.924	0.100
62.100	35.512	0.100
62.200	64.080	0.100
62.300	45.154	0.100
62.400	57.290	0.100
62.500	33.503	0.100
62.600	53.550	0.100
62.700	49.445	0.100
62.800	51.754	0.100
62.900	43.986	0.100
63.000	57.318	0.100
63.100	42.896	0.100
63.200	33.159	0.100
63.300	56.007	0.100
63.400	50.129	0.100
63.500	43.925	0.100
63.600	43.982	0.100
63.700	50.402	0.100
63.800	40.748	0.100
63.900	41.643	0.100
64.000	49.411	0.100
64.100	34.103	0.100
64.200	51.018	0.100
64.300	51.366	0.100
64.400	48.147	0.100
64.500	44.766	0.100
64.600	39.694	0.100
64.700	45.012	0.100
64.800	36.399	0.100
64.900	41.862	0.100
65.000	33.497	0.100
65.100	46.407	0.100
65.200	30.690	0.100
65.300	52.864	0.100
65.400	42.357	0.100
65.500	42.241	0.100
65.600	50.160	0.100
65.700	33.996	0.100
65.800	54.346	0.100
65.900	47.395	0.100
66.000	40.579	0.100
66.100	29.223	0.100
66.200	41.124	0.100
66.300	50.382	0.100
66.400	44.541	0.100
66.500	53.443	0.100
66.600	40.748	0.100
66.700	38.480	0.100
66.800	38.620	0.100
66.900	41.012	0.100
67.000	37.919	0.100
67.100	65.711	0.100
67.200	38.153	0.100
67.300	35.392	0.100
67.400	33.316	0.100
67.500	39.201	0.100
67.600	40.411	0.100
67.700	42.116	0.100
67.800	34.992	0.100
67.900	43.772	0.100
68.000	47.263	0.100
68.100	56.355	0.100
68.200	49.342	0.100
68.300	44.846	0.100
68.400	40.463	0.100
68.500	45.510	0.100
68.600	37.244	0.100
68.700	56.027	0.100
68.800	43.116	0.100
68.900	40.377	0.100
69.000	34.504	0.100
69.100	42.215	0.100
69.200	51.233	0.100
69.300	52.759	0.100
69.400	56.432	0.100
69.500	24.449	0.100
69.600	34.939	0.100
69.700	36.397	0.100
69.800	42.255	0.100
69.900	44.019	0.100
70.000	55.143	0.100
70.100	51.457	0.100
70.200	34.926	0.100
70.300	34.146	0.100
70.400	44.748	0.100
70.500	38.329	0.100
70.600	45.873	0.100
70.700	38.505	0.100
70.800	38.242	0.100
70.900	36.366	0.100
71.000	44.585	0.100
71.100	47.176	0.100
71.200	39.957	0.100
71.300	50.226	0.100
71.400	32.018	0.100
71.500	44.910	0.100
71.600	32.373	0.100
71.700	46.532	0.100
71.800	42.532	0.100
71.900	37.538	0.100
72.000	46.440	0.100
72.100	47.379	0.100
72.200	39.909	0.100
72.300	50.070	0.100
72.400	35.216	0.100
72.500	33.738	0.100
72.600	42.505	0.100
72.700	41.341	0.100
72.800	50.832	0.100
72.900	50.437	0.100
73.000	20.244	0.100
73.100	40.814	0.100
73.200	36.311	0.100
73.300	34.119	0.100
73.400	49.251	0.100
73.500	31.127	0.100
73.600	32.422	0.100
73.700	49.096	0.100
73.800	50.808	0.100
73.900	47.104	0.100
74.000	41.364	0.100
74.100	49.537	0.100
74.200	40.785	0.100
74.300	19.513	0.100
74.400	40.580	0.100
74.500	34.797	0.100
74.600	56.834	0.100
74.700	42.518	0.100
74.800	43.786	0.100
74.900	39.574	0.100
75.000	45.418	0.100
75.100	29.660	0.100
75.200	30.061	0.100
75.300	44.954	0.100
75.400	49.682	0.100
75.500	33.555	0.100
75.600	43.008	0.100
75.700	33.405	0.100
75.800	42.101	0.100
75.900	43.889	0.100
76.000	39.297	0.100
76.100	34.573	0.100
76.200	42.728	0.100
76.300	40.368	0.100
76.400	38.012	0.100
76.500	42.465	0.100
76.600	43.201	0.100
76.700	31.033	0.100
76.800	45.868	0.100
76.900	51.559	0.100
77.000	39.252	0.100
77.100	38.667	0.100
77.200	35.705	0.100
77.300	40.415	0.100
77.400	37.497	0.100
77.500	37.570	0.100
77.600	48.762	0.100
77.700	41.427	0.100
77.800	35.754	0.100
77.900	40.644	0.100
78.000	40.706	0.100
78.100	49.132	0.100
78.200	28.298	0.100
78.300	48.156	0.100
78.400	36.871	0.100
78.500	35.691	0.100
78.600	48.072	0.100
78.700	49.909	0.100
78.800	51.202	0.100
78.900	45.270	0.100
79.000	34.593	0.100
79.100	44.883	0.100
79.200	37.051	0.100
79.300	31.974	0.100
79.400	44.990	0.100
79.500	33.813	0.100
79.600	47.589	0.100
79.700	41.457	0.100
79.800	44.794	0.100
79.900	33.322	0.100
80.000	46.951	0.100
80.100	41.332	0.100
80.200	37.073	0.100
80.300	39.594	0.100
80.400	43.347	0.100
80.500	35.947	0.100
80.600	42.641	0.100
80.700	25.260	0.100
80.800	32.387	0.100
80.900	39.812	0.100
81.000	45.417	0.100
81.100	38.387	0.100
81.200	55.361	0.100
81.300	39.626	0.100
81.400	32.174	0.100
81.500	21.617	0.100
81.600	49.120	0.100
81.700	44.971	0.100
81.800	42.528	0.100
81.900	38.280	0.100
82.000	28.433	0.100
82.100	27.935	0.100
82.200	35.657	0.100
82.300	37.930	0.100
82.400	48.726	0.100
82.500	48.316	0.100
82.600	43.773	0.100
82.700	41.166	0.100
82.800	38.695	0.100
82.900	40.496	0.100
83.000	37.241	0.100
83.100	43.241	0.100
83.200	39.493	0.100
83.300	41.927	0.100
83.400	46.206	0.100
83.500	43.964	0.100
83.600	38.898	0.100
83.700	41.728	0.100
83.800	38.217	0.100
83.900	28.208	0.100
84.000	43.811	0.100
84.100	39.852	0.100
84.200	36.979	0.100
84.300	41.444	0.100
84.400	42.341	0.100
84.500	35.917	0.100
84.600	48.854	0.100
84.700	40.005	0.100
84.800	39.670	0.100
84.900	39.120	0.100
85.000	28.095	0.100
85.100	40.460	0.100
85.200	50.928	0.100
85.300	37.819	0.100
85.400	33.284	0.100
85.500	44.324	0.100
85.600	40.006	0.100
85.700	37.165	0.100
85.800	39.718	0.100
85.900	55.181	0.100
86.000	37.668	0.100
86.100	29.543	0.100
86.200	36.981	0.100
86.300	29.905	0.100
86.400	40.960	0.100
86.500	35.637	0.100
86.600	45.385	0.100
86.700	32.016	0.100
86.800	39.334	0.100
86.900	52.160	0.100
87.000	50.988	0.100
87.100	36.665	0.100
87.200	32.317	0.100
87.300	35.971	0.100
87.400	39.584	0.100
87.500	34.294	0.100
87.600	43.077	0.100
87.700	34.698	0.100
87.800	26.352	0.100
87.900	38.013	0.100
88.000	44.394	0.100
88.100	27.294	0.100
88.200	51.266	0.100
88.300	39.597	0.100
88.400	36.069	0.100
88.500	43.432	0.100
88.600	43.314	0.100
88.700	47.847	0.100
88.800	47.290	0.100
88.900	36.675	0.100
89.000	26.309	0.100
89.100	33.096	0.100
89.200	39.364	0.100
89.300	38.159	0.100
89.400	34.712	0.100
89.500	35.835	0.100
89.600	40.641	0.100
89.700	38.070	0.100
89.800	37.256	0.100
89.900	39.167	0.100
90.000	25.161	0.100
90.100	21.470	0.100
90.200	29.602	0.100
90.300	19.087	0.100
90.400	8.270	0.100
90.500	19.209	0.100
90.600	6.768	0.100
90.700	11.308	0.100
90.800	-15.961	0.100
90.900	4.376	0.100
91.000	9.988	0.100
91.100	0.208	0.100
91.200	-4.379	0.100
91.300	-12.692	0.100
91.400	-4.202	0.100
91.500	5.273	0.100
91.600	-2.193	0.100
91.700	-9.577	0.100
91.800	-12.666	0.100
91.900	-21.229	0.100
92.000	-30.555	0.100
92.100	-28.342	0.100
92.200	5.267	0.100
92.300	-6.452	0.100
92.400	-13.676	0.100
92.500	-15.310	0.100
92.600	-13.974	0.100
92.700	-13.432	0.100
92.800	-21.693	0.100
92.900	-32.914	0.100
93.000	-15.868	0.100
93.100	-10.649	0.100
93.200	-17.271	0.100
93.300	-15.876	0.100
93.400	-21.859	0.100
93.500	-22.417	0.100
93.600	-6.615	0.100
93.700	-24.795	0.100
93.800	-30.110	0.100
93.900	-18.350	0.100
94.000	-12.352	0.100
94.100	-27.331	0.100
94.200	-21.193	0.100
94.300	-25.486	0.100
