time /s	I /nA	E /V
0.100	10.402	0.101
0.200	0.814	0.101
0.300	11.404	0.101
0.400	13.008	0.101
0.500	6.181	0.101
0.600	4.622	0.101
0.700	8.793	0.101
0.800	9.298	0.101
0.900	0.502	0.101
1.000	1.999	0.101
1.100	9.566	0.101
1.200	6.806	0.101
1.300	3.434	0.101
1.400	14.028	0.101
1.500	9.264	0.101
1.600	7.280	0.101
1.700	7.706	0.101
1.800	7.689	0.101
1.900	-7.553	0.101
2.000	6.432	0.101
2.100	6.340	0.101
2.200	16.511	0.101
2.300	12.494	0.101
2.400	2.984	0.101
2.500	9.177	0.101
2.600	12.112	0.101
2.700	6.208	0.101
2.800	12.644	0.101
2.900	2.893	0.101
3.000	4.017	0.101
3.100	6.589	0.101
3.200	14.039	0.101
3.300	11.011	0.101
3.400	9.027	0.101
3.500	11.977	0.101
3.600	5.345	0.101
3.700	4.421	0.101
3.800	7.353	0.101
3.900	16.826	0.101
4.000	-2.377	0.101
4.100	9.948	0.101
4.200	9.049	0.101
4.300	15.245	0.101
4.400	8.301	0.101
4.500	12.229	0.101
4.600	7.863	0.101
4.700	13.357	0.101
4.800	5.479	0.101
4.900	11.593	0.101
5.000	4.533	0.101
5.100	13.288	0.101
5.200	10.475	0.101
5.300	13.826	0.101
5.400	3.154	0.101
5.500	17.316	0.101
5.600	0.823	0.101
5.700	11.593	0.101
5.800	1.624	0.101
5.900	-2.132	0.101
6.000	14.871	0.101
6.100	0.768	0.101
6.200	12.821	0.101
6.300	10.202	0.101
6.400	15.075	0.101
6.500	2.944	0.101
6.600	-0.571	0.101
6.700	3.274	0.101
6.800	2.122	0.101
6.900	10.093	0.101
7.000	8.678	0.101
7.100	3.576	0.101
7.200	4.731	0.101
7.300	1.026	0.101
7.400	16.612	0.101
7.500	8.747	0.101
7.600	11.136	0.101
7.700	7.065	0.101
7.800	9.040	0.101
7.900	5.470	0.101
8.000	6.325	0.101
8.100	5.492	0.101
8.200	11.975	0.101
8.300	5.330	0.101
8.400	8.805	0.101
8.500	9.368	0.101
8.600	11.596	0.101
8.700	8.864	0.101
8.800	16.602	0.101
8.900	13.793	0.101
9.000	6.543	0.101
9.100	3.361	0.101
9.200	8.318	0.101
9.300	5.961	0.101
9.400	9.803	0.101
9.500	8.368	0.101
9.600	12.914	0.101
9.700	7.343	0.101
9.800	7.830	0.101
9.900	2.674	0.101
10.000	4.058	0.101
10.100	14.049	0.101
10.200	8.869	0.101
10.300	0.266	0.101
10.400	1.112	0.101
10.500	7.772	0.101
10.600	11.358	0.101
10.700	7.123	0.101
10.800	8.099	0.101
10.900	8.204	0.101
11.000	9.317	0.101
11.100	5.092	0.101
11.200	9.666	0.101
11.300	8.463	0.101
11.400	0.360	0.101
11.500	10.099	0.101
11.600	19.764	0.101
11.700	2.290	0.101
11.800	5.907	0.101
11.900	24.477	0.101
12.000	2.634	0.101
12.100	12.519	0.101
12.200	10.171	0.101
12.300	-0.815	0.101
12.400	14.239	0.101
12.500	5.127	0.101
12.600	5.268	0.101
12.700	14.736	0.101
12.800	1.527	0.101
12.900	12.585	0.101
13.000	12.081	0.101
13.100	8.905	0.101
13.200	7.675	0.101
13.300	10.123	0.101
13.400	8.836	0.101
13.500	7.917	0.101
13.600	5.936	0.101
13.700	2.218	0.101
13.800	-4.032	0.101
13.900	14.890	0.101
14.000	1.269	0.101
14.100	5.091	0.101
14.200	4.343	0.101
14.300	3.791	0.101
14.400	8.471	0.101
14.500	10.950	0.101
14.600	7.726	0.101
14.700	6.910	0.101
14.800	14.525	0.101
14.900	14.083	0.101
15.000	1.876	0.101
15.100	13.794	0.101
15.200	7.866	0.101
15.300	6.295	0.101
15.400	9.461	0.101
15.500	12.944	0.101
15.600	12.459	0.101
15.700	8.873	0.101
15.800	3.062	0.101
15.900	10.717	0.101
16.000	13.003	0.101
16.100	14.955	0.101
16.200	13.970	0.101
16.300	1.049	0.101
16.400	9.680	0.101
16.500	9.132	0.101
16.600	6.241	0.101
16.700	3.224	0.101
16.800	10.017	0.101
16.900	6.737	0.101
17.000	11.555	0.101
17.100	3.792	0.101
17.200	3.080	0.101
17.300	13.093	0.101
17.400	19.800	0.101
17.500	11.072	0.101
17.600	6.709	0.101
17.700	4.240	0.101
17.800	4.241	0.101
17.900	10.960	0.101
18.000	16.060	0.101
18.100	14.221	0.101
18.200	12.232	0.101
18.300	9.951	0.101
18.400	14.251	0.101
18.500	11.033	0.101
18.600	0.930	0.101
18.700	11.744	0.101
18.800	6.027	0.101
18.900	15.938	0.101
19.000	11.324	0.101
19.100	6.889	0.101
19.200	-0.176	0.101
19.300	6.237	0.101
19.400	6.164	0.101
19.500	7.773	0.101
19.600	8.831	0.101
19.700	9.694	0.101
19.800	11.380	0.101
19.900	10.724	0.101
20.000	1.995	0.101
20.100	-1.767	0.101
20.200	6.496	0.101
20.300	12.969	0.101
20.400	8.574	0.101
20.500	14.214	0.101
20.600	12.237	0.101
20.700	11.288	0.101
20.800	-1.028	0.101
20.900	9.078	0.101
21.000	10.894	0.101
21.100	5.881	0.101
21.200	4.240	0.101
21.300	1.410	0.101
21.400	4.463	0.101
21.500	7.552	0.101
21.600	11.902	0.101
21.700	9.405	0.101
21.800	8.594	0.101
21.900	11.798	0.101
22.000	12.724	0.101
22.100	5.539	0.101
22.200	8.314	0.101
22.300	13.767	0.101
22.400	4.041	0.101
22.500	13.233	0.101
22.600	10.044	0.101
22.700	10.309	0.101
22.800	4.433	0.101
22.900	15.166	0.101
23.000	13.006	0.101
23.100	12.892	0.101
23.200	12.682	0.101
23.300	15.496	0.101
23.400	5.153	0.101
23.500	13.743	0.101
23.600	25.047	0.101
23.700	1.213	0.101
23.800	-4.077	0.101
23.900	7.557	0.101
24.000	7.090	0.101
24.100	11.500	0.101
24.200	8.699	0.101
24.300	8.281	0.101
24.400	8.721	0.101
24.500	3.815	0.101
24.600	9.385	0.101
24.700	1.181	0.101
24.800	0.958	0.101
24.900	0.886	0.101
25.000	11.385	0.101
25.100	9.051	0.101
25.200	18.590	0.101
25.300	20.189	0.101
25.400	6.758	0.101
25.500	6.357	0.101
25.600	-5.280	0.101
25.700	12.178	0.101
25.800	19.744	0.101
25.900	11.829	0.101
26.000	14.417	0.101
26.100	15.997	0.101
26.200	21.509	0.101
26.300	-0.354	0.101
26.400	1.843	0.101
26.500	15.301	0.101
26.600	8.291	0.101
26.700	9.501	0.101
26.800	17.332	0.101
26.900	8.723	0.101
27.000	7.193	0.101
27.100	4.000	0.101
27.200	7.435	0.101
27.300	2.304	0.101
27.400	0.937	0.101
27.500	12.942	0.101
27.600	1.866	0.101
27.700	6.971	0.101
27.800	9.687	0.101
27.900	22.529	0.101
28.000	13.017	0.101
28.100	7.840	0.101
28.200	5.586	0.101
28.300	-1.292	0.101
28.400	4.080	0.101
28.500	17.121	0.101
28.600	17.869	0.101
28.700	18.840	0.101
28.800	6.184	0.101
28.900	0.081	0.101
29.000	17.907	0.101
29.100	3.978	0.101
29.200	9.082	0.101
29.300	16.535	0.101
29.400	7.094	0.101
29.500	5.008	0.101
29.600	10.156	0.101
29.700	14.776	0.101
29.800	14.301	0.101
29.900	6.166	0.101
30.000	3.175	0.101
30.100	-0.926	0.101
30.200	8.944	0.101
30.300	6.664	0.101
30.400	17.353	0.101
30.500	14.290	0.101
30.600	12.081	0.101
30.700	6.751	0.101
30.800	-0.335	0.101
30.900	-1.472	0.101
31.000	11.114	0.101
31.100	4.233	0.101
31.200	13.435	0.101
31.300	13.623	0.101
31.400	6.729	0.101
31.500	3.833	0.101
31.600	4.719	0.101
31.700	15.916	0.101
31.800	7.433	0.101
31.900	7.348	0.101
32.000	14.439	0.101
32.100	8.166	0.101
32.200	10.649	0.101
32.300	6.881	0.101
32.400	5.513	0.101
32.500	5.996	0.101
32.600	-1.194	0.101
32.700	6.745	0.101
32.800	8.604	0.101
32.900	14.499	0.101
33.000	5.602	0.101
33.100	11.372	0.101
33.200	11.459	0.101
33.300	11.516	0.101
33.400	1.464	0.101
33.500	15.974	0.101
33.600	15.934	0.101
33.700	14.102	0.101
33.800	5.712	0.101
33.900	10.305	0.101
34.000	11.213	0.101
34.100	16.969	0.101
34.200	11.398	0.101
34.300	4.474	0.101
34.400	16.122	0.101
34.500	-2.474	0.101
34.600	4.969	0.101
34.700	9.524	0.101
34.800	17.659	0.101
34.900	11.863	0.101
35.000	18.281	0.101
35.100	2.700	0.101
35.200	14.823	0.101
35.300	1.532	0.101
35.400	10.939	0.101
35.500	10.342	0.101
35.600	12.942	0.101
35.700	11.414	0.101
35.800	11.516	0.101
35.900	11.777	0.101
36.000	13.468	0.101
36.100	9.405	0.101
36.200	8.365	0.101
36.300	11.291	0.101
36.400	22.171	0.101
36.500	5.339	0.101
36.600	16.723	0.101
36.700	11.245	0.101
36.800	4.608	0.101
36.900	6.679	0.101
37.000	10.410	0.101
37.100	7.990	0.101
37.200	11.817	0.101
37.300	8.613	0.101
37.400	6.130	0.101
37.500	6.898	0.101
37.600	15.207	0.101
37.700	17.845	0.101
37.800	13.183	0.101
37.900	12.149	0.101
38.000	12.337	0.101
38.100	13.835	0.101
38.200	19.318	0.101
38.300	12.445	0.101
38.400	10.191	0.101
38.500	8.990	0.101
38.600	10.544	0.101
38.700	7.365	0.101
38.800	13.127	0.101
38.900	8.897	0.101
39.000	4.095	0.101
39.100	1.760	0.101
39.200	18.600	0.101
39.300	10.363	0.101
39.400	2.397	0.101
39.500	11.486	0.101
39.600	16.895	0.101
39.700	7.018	0.101
39.800	1.439	0.101
39.900	7.692	0.101
40.000	-0.019	0.101
40.100	16.181	0.101
40.200	21.254	0.101
40.300	11.543	0.101
40.400	12.360	0.101
40.500	14.912	0.101
40.600	4.663	0.101
40.700	2.629	0.101
40.800	5.047	0.101
40.900	25.299	0.101
41.000	6.122	0.101
41.100	20.691	0.101
41.200	10.288	0.101
41.300	2.312	0.101
41.400	12.018	0.101
41.500	11.885	0.101
41.600	16.421	0.101
41.700	8.375	0.101
41.800	6.721	0.101
41.900	5.018	0.101
42.000	11.633	0.101
42.100	9.911	0.101
42.200	19.450	0.101
42.300	20.608	0.101
42.400	9.451	0.101
42.500	8.486	0.101
42.600	9.053	0.101
42.700	7.690	0.101
42.800	3.787	0.101
42.900	12.374	0.101
43.000	6.867	0.101
43.100	9.835	0.101
43.200	14.808	0.101
43.300	13.027	0.101
43.400	6.579	0.101
43.500	7.551	0.101
43.600	14.629	0.101
43.700	12.452	0.101
43.800	20.701	0.101
43.900	10.930	0.101
44.000	14.883	0.101
44.100	12.699	0.101
44.200	14.522	0.101
44.300	3.465	0.101
44.400	5.362	0.101
44.500	9.298	0.101
44.600	12.685	0.101
44.700	16.638	0.101
44.800	9.958	0.101
44.900	7.345	0.101
45.000	12.774	0.101
45.100	4.753	0.101
45.200	6.022	0.101
45.300	17.495	0.101
45.400	21.727	0.101
45.500	5.470	0.101
45.600	5.863	0.101
45.700	11.852	0.101
45.800	13.181	0.101
45.900	7.169	0.101
46.000	12.683	0.101
46.100	13.904	0.101
46.200	5.335	0.101
46.300	11.970	0.101
46.400	11.885	0.101
46.500	9.890	0.101
46.600	10.036	0.101
46.700	11.463	0.101
46.800	3.125	0.101
46.900	10.588	0.101
47.000	8.378	0.101
47.100	14.927	0.101
47.200	16.194	0.101
47.300	3.136	0.101
47.400	7.426	0.101
47.500	11.512	0.101
47.600	12.899	0.101
47.700	11.145	0.101
47.800	23.328	0.101
47.900	18.596	0.101
48.000	9.246	0.101
48.100	10.464	0.101
48.200	13.336	0.101
48.300	19.683	0.101
48.400	13.828	0.101
48.500	4.057	0.101
48.600	13.427	0.101
48.700	12.091	0.101
48.800	14.713	0.101
48.900	24.425	0.101
49.000	11.089	0.101
49.100	15.652	0.101
49.200	15.806	0.101
49.300	9.928	0.101
49.400	4.156	0.101
49.500	17.575	0.101
49.600	14.226	0.101
49.700	13.275	0.101
49.800	15.404	0.101
49.900	11.424	0.101
50.000	16.367	0.101
50.100	16.254	0.101
50.200	-0.203	0.101
50.300	4.642	0.101
50.400	13.744	0.101
50.500	0.018	0.101
50.600	16.348	0.101
50.700	21.837	0.101
50.800	14.582	0.101
50.900	11.306	0.101
51.000	13.952	0.101
51.100	16.578	0.101
51.200	5.726	0.101
51.300	17.916	0.101
51.400	9.328	0.101
51.500	11.091	0.101
51.600	9.950	0.101
51.700	16.893	0.101
51.800	13.273	0.101
51.900	6.942	0.101
52.000	18.938	0.101
52.100	18.591	0.101
52.200	10.825	0.101
52.300	8.821	0.101
52.400	15.940	0.101
52.500	8.607	0.101
52.600	7.975	0.101
52.700	13.128	0.101
52.800	13.038	0.101
52.900	12.783	0.101
53.000	14.117	0.101
53.100	8.277	0.101
53.200	3.798	0.101
53.300	11.235	0.101
53.400	-0.059	0.101
53.500	8.690	0.101
53.600	21.641	0.101
53.700	18.455	0.101
53.800	6.580	0.101
53.900	11.835	0.101
54.000	9.754	0.101
54.100	15.789	0.101
54.200	11.618	0.101
54.300	15.231	0.101
54.400	11.695	0.101
54.500	15.933	0.101
54.600	16.540	0.101
54.700	7.590	0.101
54.800	10.668	0.101
54.900	10.660	0.101
55.000	9.095	0.101
55.100	17.026	0.101
55.200	14.676	0.101
55.300	12.123	0.101
55.400	11.786	0.101
55.500	7.838	0.101
55.600	15.533	0.101
55.700	16.033	0.101
55.800	12.859	0.101
55.900	11.140	0.101
56.000	13.916	0.101
56.100	2.821	0.101
56.200	8.251	0.101
56.300	13.461	0.101
56.400	14.992	0.101
56.500	15.032	0.101
56.600	18.499	0.101
56.700	4.969	0.101
56.800	4.871	0.101
56.900	18.165	0.101
57.000	12.771	0.101
57.100	21.573	0.101
57.200	16.712	0.101
57.300	5.650	0.101
57.400	10.356	0.101
57.500	4.821	0.101
57.600	10.364	0.101
57.700	27.825	0.101
57.800	10.646	0.101
57.900	15.297	0.101
58.000	18.380	0.101
58.100	13.726	0.101
58.200	19.505	0.101
58.300	7.997	0.101
58.400	16.975	0.101
58.500	12.840	0.101
58.600	9.677	0.101
58.700	12.000	0.101
58.800	9.729	0.101
58.900	11.011	0.101
59.000	11.133	0.101
59.100	8.843	0.101
59.200	13.636	0.101
59.300	10.224	0.101
59.400	21.532	0.101
59.500	14.762	0.101
59.600	16.970	0.101
59.700	11.799	0.101
59.800	9.804	0.101
59.900	14.229	0.101
60.000	17.101	0.101
60.100	9.819	0.101
60.200	16.247	0.101
60.300	14.910	0.101
60.400	7.824	0.101
60.500	11.518	0.101
60.600	13.263	0.101
60.700	18.902	0.101
60.800	7.965	0.101
60.900	8.809	0.101
61.000	4.947	0.101
61.100	2.286	0.101
61.200	12.692	0.101
61.300	0.282	0.101
61.400	16.643	0.101
61.500	39.889	0.101
61.600	23.513	0.101
61.700	14.793	0.101
61.800	13.526	0.101
61.900	-3.074	0.101
62.000	14.750	0.101
62.100	10.553	0.101
62.200	14.361	0.101
62.300	19.963	0.101
62.400	10.252	0.101
62.500	17.955	0.101
62.600	16.248	0.101
62.700	18.433	0.101
62.800	11.693	0.101
62.900	14.037	0.101
63.000	9.835	0.101
63.100	-2.616	0.101
63.200	14.650	0.101
63.300	15.171	0.101
63.400	18.300	0.101
63.500	13.161	0.101
63.600	7.381	0.101
63.700	6.772	0.101
63.800	17.023	0.101
63.900	22.429	0.101
64.000	9.036	0.101
64.100	9.590	0.101
64.200	17.039	0.101
64.300	14.222	0.101
64.400	11.770	0.101
64.500	15.652	0.101
64.600	7.358	0.101
64.700	3.538	0.101
64.800	14.063	0.101
64.900	15.048	0.101
65.000	10.366	0.101
65.100	9.405	0.101
65.200	13.567	0.101
65.300	15.209	0.101
65.400	18.142	0.101
65.500	11.565	0.101
65.600	-0.805	0.101
65.700	18.179	0.101
65.800	7.402	0.101
65.900	11.338	0.101
66.000	12.308	0.101
66.100	17.823	0.101
66.200	9.305	0.101
66.300	15.024	0.101
66.400	18.147	0.101
66.500	8.272	0.101
66.600	16.665	0.101
66.700	11.310	0.101
66.800	9.101	0.101
66.900	13.019	0.101
67.000	10.591	0.101
67.100	17.341	0.101
67.200	15.853	0.101
67.300	14.275	0.101
67.400	13.005	0.101
67.500	7.359	0.101
67.600	20.002	0.101
67.700	9.083	0.101
67.800	15.679	0.101
67.900	4.264	0.101
68.000	8.782	0.101
68.100	9.954	0.101
68.200	15.071	0.101
68.300	4.929	0.101
68.400	7.870	0.101
68.500	16.404	0.101
68.600	16.920	0.101
68.700	13.114	0.101
68.800	22.203	0.101
68.900	8.023	0.101
69.000	10.960	0.101
69.100	12.632	0.101
69.200	20.040	0.101
69.300	18.254	0.101
69.400	14.414	0.101
69.500	9.744	0.101
69.600	12.569	0.101
69.700	12.743	0.101
69.800	9.462	0.101
69.900	9.471	0.101
70.000	18.079	0.101
70.100	11.268	0.101
70.200	15.568	0.101
70.300	3.180	0.101
70.400	13.576	0.101
70.500	9.590	0.101
70.600	15.878	0.101
70.700	19.944	0.101
70.800	11.526	0.101
70.900	17.560	0.101
71.000	2.665	0.101
71.100	11.559	0.101
71.200	14.327	0.101
71.300	16.447	0.101
71.400	9.847	0.101
71.500	12.330	0.101
71.600	7.106	0.101
71.700	16.719	0.101
71.800	12.284	0.101
71.900	7.257	0.101
72.000	23.505	0.101
72.100	7.196	0.101
72.200	8.629	0.101
72.300	13.037	0.101
72.400	20.866	0.101
72.500	18.936	0.101
72.600	16.962	0.101
72.700	15.193	0.101
72.800	16.747	0.101
72.900	6.090	0.101
73.000	19.837	0.101
73.100	4.151	0.101
73.200	13.937	0.101
73.300	19.922	0.101
73.400	17.262	0.101
73.500	15.384	0.101
73.600	7.248	0.101
73.700	9.023	0.101
73.800	1.547	0.101
73.900	6.371	0.101
74.000	9.447	0.101
74.100	12.468	0.101
74.200	14.968	0.101
74.300	11.943	0.101
74.400	9.727	0.101
74.500	12.331	0.101
74.600	14.899	0.101
74.700	17.613	0.101
74.800	10.030	0.101
74.900	8.871	0.101
75.000	8.492	0.101
75.100	22.546	0.101
75.200	11.783	0.101
75.300	6.897	0.101
75.400	16.463	0.101
75.500	6.817	0.101
75.600	7.113	0.101
75.700	6.049	0.101
75.800	18.542	0.101
75.900	12.762	0.101
76.000	14.284	0.101
76.100	20.972	0.101
76.200	14.823	0.101
76.300	16.521	0.101
76.400	11.561	0.101
76.500	3.189	0.101
76.600	14.936	0.101
76.700	11.958	0.101
76.800	13.253	0.101
76.900	11.630	0.101
77.000	15.658	0.101
77.100	6.536	0.101
77.200	8.063	0.101
77.300	18.470	0.101
77.400	14.178	0.101
77.500	10.064	0.101
77.600	11.758	0.101
77.700	6.849	0.101
77.800	4.651	0.101
77.900	16.548	0.101
78.000	14.658	0.101
78.100	12.830	0.101
78.200	14.987	0.101
78.300	10.363	0.101
78.400	11.913	0.101
78.500	3.052	0.101
78.600	14.149	0.101
78.700	16.368	0.101
78.800	9.169	0.101
78.900	9.094	0.101
79.000	9.748	0.101
79.100	20.661	0.101
79.200	17.870	0.101
79.300	15.608	0.101
79.400	24.314	0.101
79.500	21.662	0.101
79.600	13.550	0.101
79.700	18.263	0.101
79.800	16.118	0.101
79.900	8.821	0.101
80.000	10.287	0.101
80.100	2.167	0.101
80.200	20.495	0.101
80.300	14.293	0.101
80.400	12.510	0.101
80.500	3.038	0.101
80.600	7.444	0.101
80.700	15.557	0.101
80.800	6.898	0.101
80.900	18.397	0.101
81.000	20.881	0.101
81.100	18.463	0.101
81.200	20.415	0.101
81.300	14.689	0.101
81.400	3.472	0.101
81.500	9.083	0.101
81.600	22.006	0.101
81.700	15.057	0.101
81.800	11.211	0.101
81.900	20.898	0.101
82.000	18.817	0.101
82.100	11.599	0.101
82.200	6.969	0.101
82.300	9.986	0.101
82.400	11.754	0.101
82.500	11.539	0.101
82.600	19.374	0.101
82.700	9.254	0.101
82.800	12.137	0.101
82.900	13.683	0.101
83.000	16.952	0.101
83.100	3.648	0.101
83.200	12.525	0.101
83.300	10.551	0.101
83.400	10.951	0.101
83.500	10.306	0.101
83.600	16.564	0.101
83.700	9.776	0.101
83.800	17.372	0.101
83.900	19.283	0.101
84.000	20.429	0.101
84.100	14.132	0.101
84.200	17.255	0.101
84.300	8.113	0.101
84.400	20.812	0.101
84.500	17.895	0.101
84.600	0.870	0.101
84.700	5.889	0.101
84.800	16.730	0.101
84.900	8.709	0.101
85.000	11.342	0.101
85.100	11.715	0.101
85.200	23.270	0.101
85.300	15.420	0.101
85.400	11.369	0.101
85.500	12.076	0.101
85.600	20.594	0.101
85.700	20.380	0.101
85.800	11.062	0.101
85.900	18.580	0.101
86.000	11.157	0.101
86.100	14.055	0.101
86.200	1.208	0.101
86.300	6.902	0.101
86.400	22.651	0.101
86.500	18.813	0.101
86.600	8.560	0.101
86.700	7.508	0.101
86.800	11.821	0.101
86.900	4.622	0.101
87.000	10.225	0.101
87.100	13.309	0.101
87.200	22.247	0.101
87.300	4.776	0.101
87.400	14.042	0.101
87.500	19.965	0.101
87.600	10.075	0.101
87.700	10.983	0.101
87.800	14.752	0.101
87.900	13.404	0.101
88.000	10.759	0.101
88.100	17.879	0.101
88.200	15.842	0.101
88.300	12.969	0.101
88.400	5.486	0.101
88.500	11.045	0.101
88.600	14.864	0.101
88.700	15.082	0.101
88.800	9.834	0.101
88.900	5.654	0.101
89.000	8.827	0.101
89.100	10.232	0.101
89.200	5.079	0.101
89.300	19.176	0.101
89.400	18.189	0.101
89.500	15.259	0.101
89.600	24.123	0.101
89.700	5.219	0.101
89.800	10.002	0.101
89.900	11.398	0.101
90.000	18.394	0.101
90.100	15.955	0.101
90.200	10.280	0.101
90.300	20.000	0.101
90.400	12.447	0.101
90.500	19.588	0.101
90.600	12.757	0.101
90.700	12.680	0.101
90.800	15.925	0.101
90.900	9.889	0.101
91.000	0.936	0.101
91.100	6.890	0.101
91.200	16.288	0.101
91.300	20.735	0.101
91.400	20.097	0.101
91.500	6.774	0.101
91.600	8.079	0.101
91.700	10.964	0.101
91.800	11.930	0.101
91.900	13.506	0.101
92.000	16.776	0.101
92.100	15.673	0.101
92.200	11.251	0.101
92.300	5.158	0.101
92.400	10.230	0.101
92.500	3.643	0.101
92.600	19.292	0.101
92.700	18.934	0.101
92.800	12.023	0.101
92.900	20.361	0.101
93.000	9.173	0.101
93.100	17.862	0.101
93.200	4.852	0.101
93.300	0.786	0.101
93.400	3.349	0.101
93.500	15.175	0.101
93.600	10.035	0.101
93.700	10.827	0.101
93.800	8.167	0.101
93.900	11.533	0.101
94.000	14.983	0.101
94.100	9.998	0.101
94.200	4.514	0.101
94.300	3.973	0.101
94.400	12.468	0.101
94.500	1.847	0.101
94.600	12.600	0.101
94.700	11.511	0.101
94.800	12.841	0.101
94.900	11.362	0.101
95.000	19.256	0.101
95.100	17.104	0.101
95.200	16.934	0.101
95.300	12.129	0.101
95.400	11.820	0.101
95.500	18.815	0.101
95.600	4.557	0.101
95.700	5.068	0.101
95.800	8.067	0.101
95.900	7.572	0.101
96.000	3.789	0.101
96.100	5.943	0.101
96.200	22.681	0.101
96.300	20.103	0.101
96.400	15.502	0.101
96.500	3.296	0.101
96.600	3.168	0.101
96.700	14.640	0.101
96.800	5.206	0.101
96.900	15.167	0.101
97.000	12.792	0.101
97.100	12.494	0.101
97.200	6.003	0.101
97.300	12.562	0.101
97.400	22.438	0.101
