time /s	I /nA	E /V
0.100	-14.631	0.100
0.200	-7.653	0.100
0.300	-17.364	0.100
0.400	-24.146	0.100
0.500	-8.952	0.100
0.600	7.592	0.100
0.700	-4.657	0.100
0.800	3.444	0.100
0.900	-21.911	0.100
1.000	-7.309	0.100
1.100	-15.514	0.100
1.200	-10.510	0.100
1.300	-13.986	0.100
1.400	-3.491	0.100
1.500	-17.748	0.100
1.600	-9.324	0.100
1.700	-15.525	0.100
1.800	-25.160	0.100
1.900	-20.499	0.100
2.000	-16.335	0.100
2.100	1.579	0.100
2.200	-16.280	0.100
2.300	-2.161	0.100
2.400	-3.655	0.100
2.500	-16.828	0.100
2.600	-3.411	0.100
2.700	-18.108	0.100
2.800	-13.804	0.100
2.900	-9.550	0.100
3.000	-8.311	0.100
3.100	2.946	0.100
3.200	-0.267	0.100
3.300	-20.381	0.100
3.400	-10.312	0.100
3.500	-3.118	0.100
3.600	12.556	0.100
3.700	-5.034	0.100
3.800	-5.067	0.100
3.900	-8.298	0.100
4.000	-17.601	0.100
4.100	-9.830	0.100
4.200	-4.132	0.100
4.300	0.184	0.100
4.400	-9.901	0.100
4.500	-17.244	0.100
4.600	-18.875	0.100
4.700	-5.263	0.100
4.800	-2.621	0.100
4.900	-12.049	0.100
5.000	-20.722	0.100
5.100	-14.808	0.100
5.200	-9.514	0.100
5.300	0.589	0.100
5.400	-11.333	0.100
5.500	-13.308	0.100
5.600	2.228	0.100
5.700	-12.483	0.100
5.800	-22.328	0.100
5.900	-18.226	0.100
6.000	-26.037	0.100
6.100	-5.896	0.100
6.200	-11.444	0.100
6.300	-2.189	0.100
6.400	-5.414	0.100
6.500	-13.183	0.100
6.600	-0.765	0.100
6.700	-20.751	0.100
6.800	-17.620	0.100
6.900	-19.653	0.100
7.000	-6.479	0.100
7.100	-6.163	0.100
7.200	-16.139	0.100
7.300	-11.491	0.100
7.400	-1.127	0.100
7.500	-7.186	0.100
7.600	-18.600	0.100
7.700	2.321	0.100
7.800	-6.600	0.100
7.900	-4.749	0.100
8.000	-0.567	0.100
8.100	-5.624	0.100
8.200	-22.740	0.100
8.300	-13.359	0.100
8.400	-3.929	0.100
8.500	-17.257	0.100
8.600	-6.630	0.100
8.700	-6.292	0.100
8.800	-12.531	0.100
8.900	-6.332	0.100
9.000	-24.485	0.100
9.100	-13.208	0.100
9.200	-18.974	0.100
9.300	-9.675	0.100
9.400	-9.395	0.100
9.500	4.068	0.100
9.600	-2.997	0.100
9.700	-0.348	0.100
9.800	-4.642	0.100
9.900	-4.600	0.100
10.000	-3.159	0.100
10.100	-30.213	0.100
10.200	-7.813	0.100
10.300	-9.078	0.100
10.400	-14.452	0.100
10.500	-31.090	0.100
10.600	-18.513	0.100
10.700	1.745	0.100
10.800	-11.177	0.100
10.900	0.503	0.100
11.000	-7.822	0.100
11.100	-13.175	0.100
11.200	-13.882	0.100
11.300	-10.588	0.100
11.400	-1.130	0.100
11.500	-10.241	0.100
11.600	-10.116	0.100
11.700	-4.622	0.100
11.800	-8.482	0.100
11.900	-3.106	0.100
12.000	-10.830	0.100
12.100	-6.493	0.100
12.200	-9.950	0.100
12.300	-2.171	0.100
12.400	-3.901	0.100
12.500	-15.607	0.100
12.600	-16.423	0.100
12.700	-14.407	0.100
12.800	-18.947	0.100
12.900	-6.851	0.100
13.000	-4.066	0.100
13.100	-16.119	0.100
13.200	-12.629	0.100
13.300	-12.545	0.100
13.400	1.552	0.100
13.500	6.250	0.100
13.600	-14.970	0.100
13.700	-13.914	0.100
13.800	-16.471	0.100
13.900	-11.375	0.100
14.000	-6.158	0.100
14.100	-10.401	0.100
14.200	-10.835	0.100
14.300	-16.534	0.100
14.400	10.962	0.100
14.500	2.900	0.100
14.600	-12.164	0.100
14.700	-15.029	0.100
14.800	-15.740	0.100
14.900	-2.189	0.100
15.000	-7.510	0.100
15.100	-21.730	0.100
15.200	-2.796	0.100
15.300	-14.840	0.100
15.400	-19.171	0.100
15.500	-10.598	0.100
15.600	-3.061	0.100
15.700	-3.194	0.100
15.800	-11.692	0.100
15.900	-5.348	0.100
16.000	-6.232	0.100
16.100	-14.003	0.100
16.200	-5.694	0.100
16.300	-10.410	0.100
16.400	-17.717	0.100
16.500	11.997	0.100
16.600	-11.489	0.100
16.700	-7.476	0.100
16.800	-13.427	0.100
16.900	-8.763	0.100
17.000	-3.759	0.100
17.100	-5.096	0.100
17.200	-6.629	0.100
17.300	-15.791	0.100
17.400	-24.257	0.100
17.500	-5.591	0.100
17.600	3.876	0.100
17.700	-3.159	0.100
17.800	-14.598	0.100
17.900	-29.544	0.100
18.000	-3.087	0.100
18.100	-6.720	0.100
18.200	-11.269	0.100
18.300	-7.997	0.100
18.400	-5.404	0.100
18.500	-7.832	0.100
18.600	-4.033	0.100
18.700	-4.333	0.100
18.800	-21.323	0.100
18.900	-24.225	0.100
19.000	-16.700	0.100
19.100	-7.692	0.100
19.200	3.226	0.100
19.300	-15.768	0.100
19.400	-18.612	0.100
19.500	-10.798	0.100
19.600	-1.704	0.100
19.700	-10.092	0.100
19.800	-1.395	0.100
19.900	-2.977	0.100
20.000	-16.651	0.100
20.100	-28.305	0.100
20.200	-11.364	0.100
20.300	-8.104	0.100
20.400	0.160	0.100
20.500	-2.802	0.100
20.600	-5.685	0.100
20.700	-16.529	0.100
20.800	-7.227	0.100
20.900	-18.042	0.100
21.000	-17.178	0.100
21.100	-4.634	0.100
21.200	-17.736	0.100
21.300	2.250	0.100
21.400	-15.670	0.100
21.500	-5.265	0.100
21.600	-6.127	0.100
21.700	-12.647	0.100
21.800	-11.773	0.100
21.900	-8.488	0.100
22.000	-5.654	0.100
22.100	-0.089	0.100
22.200	2.301	0.100
22.300	-7.698	0.100
22.400	-8.021	0.100
22.500	-2.062	0.100
22.600	-11.681	0.100
22.700	-29.065	0.100
22.800	-5.542	0.100
22.900	-16.824	0.100
23.000	-3.991	0.100
23.100	-2.874	0.100
23.200	-15.351	0.100
23.300	0.570	0.100
23.400	-13.068	0.100
23.500	-4.849	0.100
23.600	-23.640	0.100
23.700	-14.970	0.100
23.800	-9.420	0.100
23.900	-6.123	0.100
24.000	-7.933	0.100
24.100	7.157	0.100
24.200	-3.247	0.100
24.300	-2.009	0.100
24.400	-3.583	0.100
24.500	-13.442	0.100
24.600	-10.174	0.100
24.700	-18.174	0.100
24.800	-3.247	0.100
24.900	4.933	0.100
25.000	-5.025	0.100
25.100	-13.998	0.100
25.200	-13.167	0.100
25.300	-4.631	0.100
25.400	-9.017	0.100
25.500	0.872	0.100
25.600	-7.823	0.100
25.700	-6.548	0.100
25.800	-20.984	0.100
25.900	-10.447	0.100
26.000	-24.353	0.100
26.100	-9.231	0.100
26.200	-14.144	0.100
26.300	-4.309	0.100
26.400	-15.158	0.100
26.500	-21.131	0.100
26.600	9.303	0.100
26.700	10.138	0.100
26.800	2.335	0.100
26.900	2.444	0.100
27.000	-11.114	0.100
27.100	-14.546	0.100
27.200	-23.640	0.100
27.300	-26.674	0.100
27.400	-8.931	0.100
27.500	3.351	0.100
27.600	4.124	0.100
27.700	-5.152	0.100
27.800	-9.151	0.100
27.900	-10.188	0.100
28.000	0.816	0.100
28.100	-6.626	0.100
28.200	-20.312	0.100
28.300	0.556	0.100
28.400	-8.836	0.100
28.500	1.700	0.100
28.600	-11.239	0.100
28.700	-12.157	0.100
28.800	2.323	0.100
28.900	-2.262	0.100
29.000	-7.312	0.100
29.100	-6.407	0.100
29.200	-22.975	0.100
29.300	-28.335	0.100
29.400	-7.522	0.100
29.500	-3.812	0.100
29.600	0.041	0.100
29.700	-0.383	0.100
29.800	-15.408	0.100
29.900	-4.741	0.100
30.000	-18.064	0.100
30.100	-4.371	0.100
30.200	-4.339	0.100
30.300	-12.874	0.100
30.400	-13.150	0.100
30.500	8.189	0.100
30.600	-0.434	0.100
30.700	-12.681	0.100
30.800	11.084	0.100
30.900	4.938	0.100
31.000	-1.639	0.100
31.100	2.147	0.100
31.200	4.654	0.100
31.300	4.472	0.100
31.400	-0.101	0.100
31.500	1.671	0.100
31.600	-0.847	0.100
31.700	18.771	0.100
31.800	13.240	0.100
31.900	10.874	0.100
32.000	23.418	0.100
32.100	19.521	0.100
32.200	13.425	0.100
32.300	10.902	0.100
32.400	-0.421	0.100
32.500	-2.149	0.100
32.600	10.817	0.100
32.700	26.423	0.100
32.800	12.678	0.100
32.900	24.947	0.100
33.000	23.487	0.100
33.100	21.145	0.100
33.200	23.915	0.100
33.300	22.645	0.100
33.400	7.745	0.100
33.500	7.154	0.100
33.600	19.777	0.100
33.700	26.951	0.100
33.800	24.523	0.100
33.900	21.259	0.100
34.000	29.006	0.100
34.100	19.692	0.100
34.200	23.398	0.100
34.300	13.580	0.100
34.400	16.984	0.100
34.500	8.785	0.100
34.600	17.613	0.100
34.700	24.290	0.100
34.800	11.817	0.100
34.900	13.407	0.100
35.000	13.775	0.100
35.100	2.458	0.100
35.200	17.758	0.100
35.300	34.982	0.100
35.400	25.241	0.100
35.500	24.839	0.100
35.600	26.916	0.100
35.700	17.502	0.100
35.800	9.997	0.100
35.900	3.967	0.100
36.000	9.309	0.100
36.100	28.391	0.100
36.200	12.195	0.100
36.300	28.219	0.100
36.400	19.140	0.100
36.500	5.413	0.100
36.600	33.335	0.100
36.700	14.164	0.100
36.800	20.588	0.100
36.900	24.750	0.100
37.000	7.994	0.100
37.100	23.951	0.100
37.200	25.431	0.100
37.300	25.271	0.100
37.400	34.446	0.100
37.500	30.311	0.100
37.600	19.395	0.100
37.700	16.075	0.100
37.800	28.288	0.100
37.900	20.993	0.100
38.000	17.830	0.100
38.100	19.109	0.100
38.200	12.110	0.100
38.300	18.407	0.100
38.400	34.265	0.100
38.500	26.520	0.100
38.600	27.660	0.100
38.700	30.062	0.100
38.800	23.883	0.100
38.900	18.710	0.100
39.000	22.740	0.100
39.100	25.887	0.100
39.200	20.434	0.100
39.300	26.256	0.100
39.400	26.825	0.100
39.500	37.801	0.100
39.600	29.952	0.100
39.700	26.042	0.100
39.800	25.336	0.100
39.900	29.249	0.100
40.000	7.656	0.100
40.100	28.802	0.100
40.200	29.148	0.100
40.300	29.491	0.100
40.400	30.996	0.100
40.500	31.906	0.100
40.600	22.740	0.100
40.700	27.429	0.100
40.800	25.768	0.100
40.900	32.763	0.100
41.000	35.293	0.100
41.100	34.835	0.100
41.200	45.881	0.100
41.300	29.853	0.100
41.400	35.173	0.100
41.500	37.866	0.100
41.600	33.708	0.100
41.700	16.402	0.100
41.800	39.512	0.100
41.900	42.826	0.100
42.000	37.868	0.100
42.100	26.997	0.100
42.200	36.391	0.100
42.300	36.171	0.100
42.400	32.471	0.100
42.500	45.242	0.100
42.600	29.011	0.100
42.700	28.177	0.100
42.800	42.966	0.100
42.900	41.668	0.100
43.000	39.795	0.100
43.100	26.539	0.100
43.200	42.002	0.100
43.300	52.418	0.100
43.400	46.882	0.100
43.500	38.647	0.100
43.600	35.520	0.100
43.700	42.717	0.100
43.800	55.878	0.100
43.900	44.625	0.100
44.000	41.941	0.100
44.100	21.687	0.100
44.200	31.199	0.100
44.300	38.449	0.100
44.400	41.450	0.100
44.500	30.723	0.100
44.600	36.158	0.100
44.700	44.948	0.100
44.800	45.537	0.100
44.900	42.108	0.100
45.000	33.953	0.100
45.100	41.508	0.100
45.200	48.828	0.100
45.300	37.199	0.100
45.400	48.555	0.100
45.500	55.313	0.100
45.600	49.002	0.100
45.700	37.589	0.100
45.800	54.316	0.100
45.900	45.027	0.100
46.000	38.217	0.100
46.100	60.220	0.100
46.200	46.891	0.100
46.300	53.497	0.100
46.400	52.983	0.100
46.500	62.606	0.100
46.600	51.640	0.100
46.700	54.311	0.100
46.800	37.297	0.100
46.900	49.608	0.100
47.000	61.369	0.100
47.100	57.989	0.100
47.200	53.226	0.100
47.300	47.532	0.100
47.400	50.004	0.100
47.500	46.608	0.100
47.600	43.983	0.100
47.700	58.993	0.100
47.800	52.671	0.100
47.900	54.524	0.100
48.000	44.825	0.100
48.100	43.374	0.100
48.200	45.723	0.100
48.300	55.619	0.100
48.400	49.936	0.100
48.500	46.904	0.100
48.600	51.629	0.100
48.700	53.468	0.100
48.800	53.045	0.100
48.900	71.751	0.100
49.000	52.424	0.100
49.100	55.108	0.100
49.200	58.231	0.100
49.300	63.623	0.100
49.400	49.472	0.100
49.500	48.271	0.100
49.600	58.570	0.100
49.700	64.813	0.100
49.800	49.934	0.100
49.900	62.482	0.100
50.000	62.504	0.100
50.100	56.126	0.100
50.200	54.837	0.100
50.300	54.124	0.100
50.400	52.569	0.100
50.500	64.230	0.100
50.600	67.825	0.100
50.700	60.276	0.100
50.800	62.397	0.100
50.900	49.403	0.100
51.000	55.166	0.100
51.100	63.861	0.100
51.200	62.561	0.100
51.300	61.608	0.100
51.400	52.218	0.100
51.500	54.409	0.100
51.600	68.964	0.100
51.700	66.015	0.100
51.800	66.477	0.100
51.900	65.093	0.100
52.000	67.844	0.100
52.100	63.838	0.100
52.200	76.681	0.100
52.300	68.141	0.100
52.400	62.149	0.100
52.500	54.673	0.100
52.600	64.095	0.100
52.700	69.458	0.100
52.800	71.834	0.100
52.900	65.595	0.100
53.000	60.251	0.100
53.100	60.307	0.100
53.200	63.801	0.100
53.300	65.510	0.100
53.400	61.748	0.100
53.500	66.058	0.100
53.600	69.794	0.100
53.700	69.181	0.100
53.800	75.491	0.100
53.900	56.844	0.100
54.000	56.258	0.100
54.100	73.604	0.100
54.200	68.407	0.100
54.300	67.444	0.100
54.400	70.565	0.100
54.500	61.391	0.100
54.600	56.229	0.100
54.700	68.175	0.100
54.800	78.013	0.100
54.900	55.136	0.100
55.000	57.390	0.100
55.100	74.887	0.100
55.200	73.389	0.100
55.300	84.845	0.100
55.400	76.714	0.100
55.500	72.402	0.100
55.600	70.114	0.100
55.700	69.732	0.100
55.800	73.863	0.100
55.900	68.493	0.100
56.000	53.827	0.100
56.100	74.187	0.100
56.200	77.727	0.100
56.300	70.723	0.100
56.400	70.350	0.100
56.500	66.179	0.100
56.600	66.319	0.100
56.700	78.534	0.100
56.800	70.611	0.100
56.900	72.136	0.100
57.000	60.937	0.100
57.100	64.182	0.100
57.200	83.625	0.100
57.300	61.037	0.100
57.400	56.752	0.100
57.500	57.326	0.100
57.600	77.386	0.100
57.700	62.156	0.100
57.800	90.302	0.100
57.900	81.382	0.100
58.000	70.035	0.100
58.100	87.955	0.100
58.200	77.256	0.100
58.300	79.737	0.100
58.400	60.131	0.100
58.500	69.832	0.100
58.600	71.464	0.100
58.700	66.558	0.100
58.800	61.478	0.100
58.900	73.684	0.100
59.000	70.256	0.100
59.100	68.422	0.100
59.200	68.440	0.100
59.300	62.848	0.100
59.400	71.395	0.100
59.500	85.426	0.100
59.600	68.469	0.100
59.700	70.774	0.100
59.800	78.212	0.100
59.900	71.963	0.100
60.000	60.777	0.100
60.100	49.288	0.100
60.200	75.529	0.100
60.300	76.434	0.100
60.400	64.879	0.100
60.500	73.283	0.100
60.600	66.131	0.100
60.700	86.353	0.100
60.800	60.481	0.100
60.900	77.855	0.100
61.000	68.143	0.100
61.100	58.241	0.100
61.200	67.110	0.100
61.300	74.051	0.100
61.400	74.744	0.100
61.500	76.482	0.100
61.600	64.803	0.100
61.700	76.737	0.100
61.800	64.208	0.100
61.900	84.229	0.100
62.000	58.454	0.100
62.100	68.760	0.100
62.200	54.731	0.100
62.300	59.773	0.100
62.400	70.953	0.100
62.500	57.700	0.100
62.600	70.987	0.100
62.700	78.598	0.100
62.800	65.809	0.100
62.900	62.890	0.100
63.000	68.315	0.100
63.100	69.341	0.100
63.200	56.949	0.100
63.300	78.426	0.100
63.400	58.904	0.100
63.500	78.514	0.100
63.600	79.784	0.100
63.700	72.840	0.100
63.800	68.449	0.100
63.900	71.713	0.100
64.000	71.564	0.100
64.100	70.231	0.100
64.200	60.749	0.100
64.300	67.647	0.100
64.400	79.912	0.100
64.500	70.828	0.100
64.600	75.647	0.100
64.700	75.538	0.100
64.800	62.579	0.100
64.900	65.252	0.100
65.000	62.423	0.100
65.100	66.579	0.100
65.200	81.289	0.100
65.300	66.352	0.100
65.400	68.059	0.100
65.500	64.478	0.100
65.600	68.952	0.100
65.700	80.979	0.100
65.800	69.518	0.100
65.900	66.745	0.100
66.000	64.381	0.100
66.100	51.305	0.100
66.200	58.671	0.100
66.300	89.281	0.100
66.400	71.185	0.100
66.500	81.842	0.100
66.600	71.358	0.100
66.700	70.650	0.100
66.800	85.347	0.100
66.900	57.755	0.100
67.000	56.592	0.100
67.100	64.248	0.100
67.200	66.619	0.100
67.300	70.380	0.100
67.400	67.158	0.100
67.500	71.991	0.100
67.600	66.939	0.100
67.700	76.235	0.100
67.800	68.296	0.100
67.900	68.121	0.100
68.000	64.175	0.100
68.100	65.922	0.100
68.200	66.463	0.100
68.300	76.010	0.100
68.400	59.038	0.100
68.500	74.133	0.100
68.600	65.157	0.100
68.700	65.458	0.100
68.800	79.543	0.100
68.900	76.654	0.100
69.000	67.177	0.100
69.100	62.462	0.100
69.200	67.762	0.100
69.300	57.128	0.100
69.400	71.471	0.100
69.500	71.057	0.100
69.600	76.501	0.100
69.700	70.253	0.100
69.800	77.136	0.100
69.900	68.450	0.100
70.000	57.917	0.100
70.100	67.400	0.100
70.200	76.989	0.100
70.300	69.761	0.100
70.400	78.151	0.100
70.500	66.371	0.100
70.600	55.128	0.100
70.700	56.621	0.100
70.800	80.799	0.100
70.900	72.868	0.100
71.000	67.820	0.100
71.100	61.316	0.100
71.200	78.738	0.100
71.300	72.976	0.100
71.400	73.029	0.100
71.500	69.383	0.100
71.600	73.878	0.100
71.700	76.171	0.100
71.800	58.078	0.100
71.900	56.835	0.100
72.000	65.088	0.100
72.100	72.452	0.100
72.200	66.838	0.100
72.300	71.790	0.100
72.400	56.846	0.100
72.500	61.397	0.100
72.600	74.563	0.100
72.700	68.669	0.100
72.800	64.683	0.100
72.900	67.549	0.100
73.000	68.965	0.100
73.100	75.411	0.100
73.200	70.597	0.100
73.300	55.696	0.100
73.400	58.477	0.100
73.500	67.968	0.100
73.600	57.004	0.100
73.700	74.880	0.100
73.800	72.101	0.100
73.900	66.179	0.100
74.000	69.114	0.100
74.100	64.885	0.100
74.200	69.725	0.100
74.300	66.945	0.100
74.400	53.767	0.100
74.500	69.205	0.100
74.600	65.011	0.100
74.700	60.509	0.100
74.800	69.555	0.100
74.900	75.296	0.100
75.000	64.416	0.100
75.100	75.997	0.100
75.200	85.778	0.100
75.300	70.498	0.100
75.400	74.124	0.100
75.500	57.845	0.100
75.600	58.491	0.100
75.700	58.876	0.100
75.800	75.430	0.100
75.900	67.454	0.100
76.000	61.293	0.100
76.100	59.470	0.100
76.200	74.255	0.100
76.300	65.810	0.100
76.400	67.254	0.100
76.500	64.886	0.100
76.600	76.248	0.100
76.700	67.623	0.100
76.800	59.868	0.100
76.900	77.440	0.100
77.000	70.426	0.100
77.100	71.732	0.100
77.200	57.980	0.100
77.300	54.106	0.100
77.400	68.582	0.100
77.500	64.592	0.100
77.600	53.924	0.100
77.700	79.896	0.100
77.800	64.449	0.100
77.900	67.236	0.100
78.000	70.541	0.100
78.100	57.932	0.100
78.200	66.232	0.100
78.300	68.315	0.100
78.400	58.300	0.100
78.500	72.960	0.100
78.600	81.558	0.100
78.700	84.020	0.100
78.800	67.664	0.100
78.900	71.595	0.100
79.000	62.013	0.100
79.100	68.476	0.100
79.200	60.005	0.100
79.300	63.382	0.100
79.400	68.419	0.100
79.500	72.582	0.100
79.600	66.912	0.100
79.700	63.890	0.100
79.800	59.695	0.100
79.900	66.910	0.100
80.000	71.463	0.100
80.100	69.609	0.100
80.200	57.687	0.100
80.300	73.454	0.100
80.400	69.100	0.100
80.500	52.318	0.100
80.600	56.656	0.100
80.700	69.310	0.100
80.800	82.239	0.100
80.900	68.303	0.100
81.000	63.073	0.100
81.100	57.862	0.100
81.200	57.988	0.100
81.300	66.440	0.100
81.400	59.507	0.100
81.500	59.374	0.100
81.600	65.550	0.100
81.700	50.906	0.100
81.800	77.011	0.100
81.900	76.719	0.100
82.000	68.355	0.100
82.100	71.171	0.100
82.200	72.951	0.100
82.300	80.684	0.100
82.400	59.060	0.100
82.500	67.245	0.100
82.600	55.988	0.100
82.700	70.816	0.100
82.800	77.290	0.100
82.900	67.239	0.100
83.000	61.848	0.100
83.100	58.637	0.100
83.200	65.856	0.100
83.300	67.371	0.100
83.400	63.631	0.100
83.500	71.836	0.100
83.600	61.531	0.100
83.700	71.869	0.100
83.800	66.814	0.100
83.900	64.048	0.100
84.000	64.299	0.100
84.100	66.585	0.100
84.200	61.363	0.100
84.300	67.319	0.100
84.400	72.214	0.100
84.500	61.217	0.100
84.600	77.384	0.100
84.700	74.814	0.100
84.800	59.384	0.100
84.900	66.331	0.100
85.000	65.827	0.100
85.100	50.838	0.100
85.200	60.749	0.100
85.300	62.213	0.100
85.400	75.287	0.100
85.500	56.656	0.100
85.600	66.804	0.100
85.700	65.438	0.100
85.800	65.408	0.100
85.900	67.660	0.100
86.000	64.534	0.100
86.100	70.668	0.100
86.200	57.393	0.100
86.300	84.539	0.100
86.400	79.238	0.100
86.500	77.547	0.100
86.600	73.805	0.100
86.700	57.389	0.100
86.800	66.208	0.100
86.900	66.750	0.100
87.000	69.828	0.100
87.100	71.495	0.100
87.200	52.521	0.100
87.300	62.813	0.100
87.400	65.227	0.100
87.500	61.043	0.100
87.600	66.159	0.100
87.700	66.937	0.100
87.800	65.838	0.100
87.900	72.415	0.100
88.000	58.314	0.100
88.100	69.989	0.100
88.200	52.885	0.100
88.300	71.737	0.100
88.400	69.828	0.100
88.500	68.635	0.100
88.600	48.575	0.100
88.700	65.119	0.100
88.800	73.628	0.100
88.900	79.067	0.100
89.000	63.617	0.100
89.100	63.584	0.100
89.200	70.608	0.100
89.300	56.803	0.100
89.400	65.217	0.100
89.500	60.460	0.100
89.600	62.742	0.100
89.700	76.003	0.100
89.800	64.614	0.100
89.900	74.942	0.100
90.000	73.333	0.100
90.100	57.920	0.100
90.200	48.336	0.100
90.300	61.971	0.100
90.400	74.674	0.100
90.500	58.305	0.100
90.600	63.899	0.100
90.700	52.085	0.100
90.800	45.894	0.100
90.900	67.749	0.100
91.000	72.314	0.100
91.100	57.780	0.100
91.200	57.321	0.100
91.300	49.530	0.100
91.400	47.644	0.100
91.500	60.844	0.100
91.600	48.770	0.100
91.700	44.410	0.100
91.800	40.236	0.100
91.900	49.930	0.100
92.000	27.330	0.100
92.100	39.820	0.100
92.200	34.459	0.100
92.300	31.378	0.100
92.400	27.928	0.100
92.500	28.715	0.100
92.600	57.905	0.100
92.700	41.295	0.100
92.800	35.213	0.100
92.900	31.957	0.100
93.000	36.794	0.100
93.100	32.295	0.100
93.200	26.576	0.100
93.300	32.282	0.100
93.400	24.668	0.100
93.500	22.857	0.100
93.600	33.191	0.100
93.700	30.511	0.100
93.800	15.067	0.100
93.900	20.122	0.100
94.000	6.012	0.100
94.100	26.334	0.100
94.200	22.014	0.100
94.300	14.889	0.100
94.400	35.476	0.100
94.500	29.637	0.100
94.600	18.256	0.100
94.700	17.500	0.100
94.800	13.680	0.100
94.900	17.048	0.100
95.000	23.337	0.100
95.100	19.961	0.100
