time /s	I /nA	E /V
0.100	-14.224	0.099
0.200	-24.753	0.099
0.300	-33.845	0.099
0.400	-6.852	0.099
0.500	-32.590	0.099
0.600	-54.726	0.099
0.700	-20.682	0.099
0.800	-24.886	0.099
0.900	-20.847	0.099
1.000	-2.226	0.099
1.100	4.586	0.099
1.200	-4.459	0.100
1.300	-25.909	0.099
1.400	-7.104	0.099
1.500	-26.626	0.099
1.600	1.793	0.099
1.700	-17.394	0.099
1.800	-20.130	0.099
1.900	-29.796	0.099
2.000	-29.239	0.099
2.100	-13.214	0.099
2.200	-4.452	0.099
2.300	-22.037	0.099
2.400	-32.219	0.099
2.500	-45.547	0.099
2.600	-22.762	0.099
2.700	-14.982	0.099
2.800	-52.622	0.099
2.900	-28.213	0.099
3.000	-8.071	0.099
3.100	0.375	0.099
3.200	-12.081	0.100
3.300	-21.343	0.099
3.400	-17.343	0.099
3.500	-14.449	0.099
3.600	-34.832	0.099
3.700	-22.706	0.099
3.800	-24.064	0.099
3.900	-19.993	0.099
4.000	-1.314	0.099
4.100	-19.489	0.099
4.200	-14.469	0.099
4.300	-11.166	0.099
4.400	-34.764	0.099
4.500	-21.919	0.099
4.600	-30.898	0.099
4.700	-21.636	0.099
4.800	-29.159	0.099
4.900	-10.464	0.099
5.000	5.612	0.099
5.100	-46.323	0.099
5.200	-36.327	0.099
5.300	-47.215	0.099
5.400	-27.973	0.099
5.500	-33.890	0.099
5.600	-20.574	0.099
5.700	-11.116	0.099
5.800	-7.978	0.099
5.900	-33.407	0.099
6.000	-30.632	0.099
6.100	-29.353	0.099
6.200	-34.674	0.099
6.300	-45.324	0.099
6.400	-17.603	0.099
6.500	-13.836	0.099
6.600	-39.333	0.099
6.700	-16.381	0.099
6.800	-23.169	0.099
6.900	-14.177	0.099
7.000	-31.057	0.099
7.100	19.960	0.099
7.200	-30.318	0.099
7.300	-18.136	0.099
7.400	-25.587	0.099
7.500	-40.706	0.099
7.600	-22.346	0.099
7.700	-9.170	0.099
7.800	-11.974	0.100
7.900	4.102	0.099
8.000	-39.137	0.099
8.100	-31.851	0.099
8.200	-28.713	0.099
8.300	-12.926	0.099
8.400	-7.883	0.099
8.500	-19.721	0.099
8.600	-19.939	0.099
8.700	-11.403	0.099
8.800	-43.217	0.099
8.900	-61.501	0.099
9.000	-20.995	0.099
9.100	0.470	0.099
9.200	-12.394	0.099
9.300	-6.796	0.099
9.400	-19.054	0.099
9.500	-9.404	0.099
9.600	-2.376	0.099
9.700	-28.405	0.099
9.800	-31.699	0.100
9.900	-34.930	0.099
10.000	5.260	0.099
10.100	-15.397	0.099
10.200	-34.140	0.099
10.300	-14.052	0.099
10.400	-30.346	0.099
10.500	-5.289	0.100
10.600	-19.131	0.099
10.700	-14.556	0.099
10.800	-19.702	0.099
10.900	-12.255	0.099
11.000	-7.407	0.099
11.100	-12.928	0.099
11.200	-19.735	0.099
11.300	-18.100	0.099
11.400	-21.030	0.099
11.500	-15.848	0.099
11.600	-59.251	0.099
11.700	12.886	0.099
11.800	-45.940	0.099
11.900	-12.243	0.099
12.000	-25.197	0.099
12.100	-38.220	0.099
12.200	-46.320	0.099
12.300	-23.464	0.099
12.400	-4.805	0.099
12.500	-33.110	0.099
12.600	-5.847	0.099
12.700	-24.965	0.099
12.800	-40.470	0.099
12.900	-15.442	0.099
13.000	-11.632	0.099
13.100	-5.768	0.099
13.200	-21.807	0.099
13.300	-21.040	0.099
13.400	-11.178	0.099
13.500	10.125	0.099
13.600	-12.787	0.099
13.700	-23.074	0.099
13.800	-34.193	0.100
13.900	-33.962	0.099
14.000	-37.681	0.099
14.100	-37.439	0.099
14.200	15.075	0.099
14.300	-0.075	0.099
14.400	-7.165	0.099
14.500	-21.529	0.099
14.600	-8.766	0.099
14.700	-5.695	0.099
14.800	-37.155	0.099
14.900	-25.194	0.099
15.000	-22.709	0.099
15.100	-12.048	0.099
15.200	-15.483	0.099
15.300	-4.487	0.099
15.400	-39.311	0.099
15.500	-6.611	0.099
15.600	-7.145	0.099
15.700	-5.935	0.099
15.800	-5.502	0.099
15.900	-9.700	0.099
16.000	-27.048	0.099
16.100	-23.537	0.099
16.200	-50.340	0.099
16.300	-28.944	0.099
16.400	-3.715	0.099
16.500	-25.581	0.099
16.600	-15.765	0.099
16.700	-16.163	0.099
16.800	-42.821	0.099
16.900	-29.314	0.099
17.000	-30.015	0.099
17.100	-35.814	0.099
17.200	-2.165	0.099
17.300	-7.576	0.099
17.400	-14.777	0.099
17.500	-21.585	0.099
17.600	-16.741	0.099
17.700	-25.538	0.099
17.800	-25.565	0.099
17.900	-47.985	0.099
18.000	-15.030	0.099
18.100	-18.360	0.099
18.200	-32.887	0.099
18.300	-25.835	0.099
18.400	-1.795	0.099
18.500	-25.047	0.099
18.600	-7.975	0.099
18.700	-28.842	0.099
18.800	-18.930	0.099
18.900	3.580	0.099
19.000	-16.237	0.099
19.100	-10.608	0.099
19.200	-23.726	0.099
19.300	2.381	0.099
19.400	-21.258	0.099
19.500	-8.498	0.099
19.600	-44.388	0.099
19.700	16.459	0.099
19.800	-34.957	0.099
19.900	-30.998	0.099
20.000	-9.758	0.099
20.100	0.333	0.099
20.200	-33.941	0.099
20.300	-11.576	0.099
20.400	-38.212	0.099
20.500	-10.610	0.099
20.600	-30.139	0.099
20.700	-32.979	0.099
20.800	-42.394	0.099
20.900	-16.565	0.099
21.000	-23.093	0.099
21.100	-11.375	0.099
21.200	-5.458	0.099
21.300	-18.638	0.099
21.400	-14.218	0.099
21.500	-21.193	0.099
21.600	-35.443	0.099
21.700	-22.927	0.099
21.800	-0.980	0.099
21.900	-35.374	0.099
22.000	6.396	0.099
22.100	-19.435	0.099
22.200	-8.371	0.099
22.300	-30.857	0.099
22.400	-9.272	0.099
22.500	-5.599	0.099
22.600	-16.330	0.099
22.700	-43.755	0.099
22.800	-17.596	0.099
22.900	-25.640	0.099
23.000	-22.502	0.099
23.100	-31.732	0.099
23.200	-13.994	0.099
23.300	-15.726	0.099
23.400	-20.926	0.099
23.500	-28.364	0.099
23.600	9.242	0.099
23.700	-16.760	0.099
23.800	-22.941	0.099
23.900	-19.392	0.099
24.000	-50.092	0.099
24.100	-35.259	0.099
24.200	-16.705	0.099
24.300	-21.859	0.099
24.400	-14.753	0.099
24.500	1.520	0.099
24.600	-37.895	0.099
24.700	-26.966	0.099
24.800	-10.829	0.099
24.900	9.013	0.099
25.000	1.416	0.099
25.100	-19.305	0.099
25.200	1.961	0.099
25.300	7.519	0.099
25.400	-30.186	0.099
25.500	-44.645	0.099
25.600	-11.773	0.099
25.700	-15.147	0.099
25.800	-33.155	0.099
25.900	-13.449	0.099
26.000	-37.546	0.099
26.100	-26.297	0.099
26.200	2.574	0.099
26.300	-18.839	0.099
26.400	-26.008	0.099
26.500	-44.691	0.099
26.600	-34.970	0.099
26.700	-38.223	0.099
26.800	-26.355	0.099
26.900	-33.894	0.099
27.000	-3.199	0.099
27.100	-1.060	0.099
27.200	-10.243	0.099
27.300	-27.476	0.099
27.400	0.384	0.099
27.500	-30.998	0.099
27.600	-24.477	0.099
27.700	4.586	0.099
27.800	-12.099	0.099
27.900	3.094	0.099
28.000	-13.056	0.099
28.100	-14.613	0.099
28.200	-13.655	0.099
28.300	1.446	0.099
28.400	-15.401	0.099
28.500	-39.122	0.099
28.600	-19.046	0.099
28.700	-38.317	0.099
28.800	-12.464	0.099
28.900	1.858	0.099
29.000	-8.795	0.099
29.100	-33.227	0.099
29.200	-19.308	0.099
29.300	-38.943	0.099
29.400	-50.157	0.099
29.500	-19.491	0.099
29.600	-0.401	0.099
29.700	-13.573	0.099
29.800	-10.315	0.099
29.900	6.341	0.099
30.000	-26.990	0.099
30.100	-58.169	0.099
30.200	-34.292	0.099
30.300	-4.333	0.099
30.400	-41.291	0.099
30.500	10.524	0.099
30.600	8.243	0.099
30.700	3.307	0.099
30.800	-7.068	0.099
30.900	-19.711	0.099
31.000	-16.826	0.099
31.100	-5.291	0.099
31.200	-8.693	0.099
31.300	-10.778	0.099
31.400	-4.401	0.099
31.500	2.483	0.099
31.600	-13.072	0.099
31.700	-2.992	0.099
31.800	11.137	0.099
31.900	-7.928	0.099
32.000	15.643	0.099
32.100	7.873	0.099
32.200	-12.298	0.099
32.300	25.805	0.099
32.400	46.002	0.099
32.500	39.636	0.099
32.600	27.593	0.099
32.700	6.103	0.099
32.800	11.077	0.099
32.900	21.047	0.099
33.000	16.134	0.099
33.100	27.378	0.099
33.200	16.965	0.099
33.300	14.171	0.099
33.400	35.625	0.099
33.500	26.049	0.099
33.600	34.110	0.099
33.700	20.075	0.099
33.800	17.301	0.099
33.900	31.667	0.099
34.000	49.092	0.099
34.100	29.381	0.099
34.200	30.385	0.099
34.300	28.587	0.099
34.400	48.966	0.099
34.500	31.057	0.099
34.600	23.713	0.099
34.700	17.651	0.099
34.800	52.048	0.099
34.900	23.931	0.099
35.000	35.291	0.100
35.100	50.907	0.099
35.200	39.096	0.099
35.300	48.380	0.099
35.400	68.376	0.099
35.500	60.099	0.099
35.600	45.863	0.099
35.700	72.015	0.099
35.800	51.266	0.099
35.900	55.159	0.099
36.000	84.083	0.099
36.100	83.495	0.099
36.200	51.343	0.099
36.300	59.678	0.099
36.400	59.521	0.099
36.500	37.040	0.099
36.600	61.623	0.099
36.700	65.826	0.099
36.800	64.863	0.099
36.900	58.307	0.099
37.000	70.348	0.099
37.100	58.841	0.099
37.200	51.045	0.099
37.300	38.987	0.099
37.400	74.364	0.099
37.500	67.519	0.099
37.600	55.419	0.099
37.700	83.875	0.099
37.800	90.225	0.099
37.900	86.597	0.099
38.000	62.979	0.099
38.100	49.474	0.099
38.200	82.775	0.099
38.300	98.849	0.099
38.400	66.658	0.099
38.500	82.663	0.099
38.600	61.909	0.099
38.700	70.742	0.099
38.800	72.600	0.099
38.900	56.344	0.099
39.000	80.224	0.099
39.100	106.232	0.099
39.200	84.660	0.099
39.300	71.254	0.099
39.400	101.626	0.099
39.500	80.550	0.099
39.600	105.032	0.099
39.700	100.821	0.099
39.800	83.185	0.099
39.900	71.508	0.099
40.000	84.398	0.099
40.100	79.594	0.099
40.200	88.250	0.099
40.300	110.559	0.100
40.400	109.132	0.099
40.500	99.594	0.099
40.600	97.799	0.099
40.700	62.790	0.099
40.800	119.855	0.099
40.900	103.743	0.099
41.000	112.553	0.099
41.100	93.361	0.099
41.200	75.129	0.099
41.300	55.863	0.099
41.400	76.899	0.099
41.500	103.039	0.099
41.600	82.886	0.099
41.700	88.009	0.099
41.800	88.623	0.099
41.900	108.634	0.099
42.000	73.296	0.099
42.100	97.572	0.099
42.200	91.681	0.099
42.300	99.836	0.099
42.400	98.941	0.099
42.500	74.058	0.099
42.600	115.357	0.099
42.700	90.642	0.099
42.800	113.638	0.099
42.900	89.829	0.099
43.000	102.627	0.099
43.100	63.568	0.099
43.200	82.134	0.099
43.300	100.842	0.099
43.400	90.478	0.099
43.500	114.137	0.099
43.600	83.059	0.099
43.700	82.733	0.099
43.800	82.682	0.099
43.900	92.723	0.099
44.000	87.245	0.099
44.100	84.708	0.099
44.200	96.089	0.099
44.300	98.892	0.100
44.400	87.924	0.099
44.500	68.208	0.099
44.600	102.592	0.099
44.700	109.778	0.099
44.800	112.247	0.099
44.900	102.361	0.099
45.000	75.141	0.099
45.100	95.989	0.099
45.200	55.082	0.099
45.300	73.862	0.099
45.400	97.024	0.099
45.500	82.466	0.099
45.600	112.538	0.099
45.700	77.751	0.099
45.800	82.034	0.099
45.900	93.458	0.099
46.000	86.576	0.099
46.100	85.632	0.099
46.200	73.527	0.099
46.300	73.330	0.099
46.400	77.856	0.099
46.500	35.738	0.099
46.600	99.352	0.099
46.700	98.685	0.099
46.800	116.191	0.099
46.900	64.413	0.099
47.000	81.947	0.099
47.100	95.588	0.099
47.200	104.766	0.099
47.300	74.896	0.100
47.400	69.802	0.099
47.500	76.318	0.099
47.600	83.077	0.099
47.700	61.751	0.099
47.800	80.520	0.100
47.900	82.832	0.099
48.000	89.849	0.099
48.100	72.813	0.099
48.200	68.077	0.099
48.300	63.168	0.099
48.400	55.808	0.099
48.500	65.645	0.099
48.600	57.477	0.099
48.700	91.007	0.099
48.800	124.214	0.099
48.900	62.145	0.099
49.000	97.122	0.099
49.100	101.844	0.099
49.200	97.779	0.099
49.300	57.781	0.099
49.400	92.475	0.099
49.500	42.654	0.099
49.600	70.137	0.099
49.700	83.696	0.099
49.800	69.876	0.100
49.900	81.558	0.099
50.000	93.811	0.099
50.100	37.426	0.099
50.200	53.527	0.099
50.300	63.554	0.099
50.400	84.643	0.099
50.500	82.810	0.099
50.600	62.932	0.099
50.700	56.487	0.099
50.800	61.515	0.099
50.900	66.871	0.099
51.000	65.421	0.099
51.100	55.193	0.099
51.200	56.134	0.099
51.300	64.876	0.099
51.400	47.328	0.099
51.500	86.810	0.099
51.600	67.274	0.099
51.700	72.972	0.099
51.800	60.087	0.099
51.900	56.305	0.100
52.000	46.035	0.099
52.100	68.748	0.099
52.200	68.796	0.100
52.300	59.977	0.099
52.400	52.694	0.100
52.500	59.504	0.099
52.600	47.275	0.099
52.700	74.714	0.099
52.800	57.948	0.099
52.900	73.018	0.099
53.000	81.194	0.099
53.100	59.633	0.099
53.200	66.092	0.099
53.300	54.611	0.099
53.400	50.078	0.099
53.500	45.586	0.099
53.600	59.252	0.099
53.700	79.078	0.099
53.800	70.103	0.099
53.900	60.508	0.099
54.000	51.253	0.099
54.100	66.002	0.099
54.200	44.384	0.099
54.300	69.446	0.099
54.400	76.108	0.099
54.500	56.101	0.099
54.600	38.945	0.099
54.700	68.362	0.099
54.800	82.630	0.099
54.900	67.117	0.099
55.000	69.533	0.099
55.100	69.857	0.099
55.200	66.173	0.099
55.300	41.384	0.099
55.400	54.034	0.099
55.500	58.206	0.099
55.600	57.761	0.099
55.700	72.053	0.099
55.800	75.399	0.099
55.900	71.962	0.099
56.000	65.128	0.099
56.100	71.017	0.099
56.200	61.734	0.099
56.300	64.675	0.099
56.400	57.417	0.099
56.500	82.133	0.099
56.600	49.519	0.099
56.700	38.924	0.099
56.800	72.658	0.099
56.900	64.736	0.099
57.000	30.590	0.099
57.100	36.548	0.099
57.200	64.888	0.099
57.300	28.021	0.099
57.400	60.259	0.099
57.500	80.943	0.099
57.600	54.724	0.099
57.700	40.026	0.099
57.800	42.638	0.099
57.900	66.684	0.099
58.000	58.654	0.099
58.100	73.078	0.099
58.200	58.662	0.099
58.300	62.813	0.099
58.400	88.367	0.099
58.500	47.951	0.099
58.600	82.811	0.099
58.700	70.846	0.099
58.800	75.888	0.099
58.900	75.925	0.099
59.000	44.811	0.099
59.100	68.653	0.099
59.200	55.912	0.099
59.300	55.602	0.099
59.400	38.774	0.099
59.500	64.633	0.099
59.600	38.522	0.099
59.700	80.232	0.099
59.800	72.496	0.099
59.900	63.969	0.099
60.000	85.833	0.099
60.100	36.160	0.099
60.200	62.678	0.099
60.300	67.587	0.099
60.400	50.682	0.099
60.500	52.013	0.099
60.600	38.194	0.099
60.700	42.486	0.099
60.800	64.665	0.100
60.900	47.745	0.099
61.000	42.176	0.099
61.100	59.154	0.099
61.200	79.405	0.099
61.300	66.799	0.099
61.400	56.624	0.099
61.500	51.860	0.099
61.600	67.183	0.099
61.700	73.600	0.099
61.800	32.641	0.099
61.900	30.823	0.099
62.000	43.327	0.099
62.100	49.224	0.099
62.200	46.380	0.099
62.300	83.049	0.099
62.400	73.387	0.099
62.500	36.770	0.099
62.600	44.807	0.099
62.700	66.667	0.099
62.800	74.794	0.099
62.900	77.496	0.099
63.000	53.863	0.099
63.100	69.607	0.099
63.200	59.749	0.099
63.300	51.644	0.099
63.400	59.474	0.099
63.500	52.454	0.099
63.600	57.705	0.099
63.700	69.248	0.099
63.800	52.979	0.099
63.900	75.303	0.100
64.000	77.058	0.099
64.100	66.467	0.099
64.200	74.908	0.099
64.300	44.602	0.099
64.400	64.392	0.099
64.500	74.895	0.099
64.600	58.241	0.099
64.700	51.735	0.099
64.800	48.407	0.099
64.900	51.632	0.099
65.000	68.214	0.100
65.100	44.386	0.099
65.200	66.250	0.099
65.300	63.310	0.099
65.400	67.320	0.099
65.500	55.905	0.099
65.600	46.889	0.099
65.700	65.905	0.099
65.800	101.014	0.099
65.900	41.924	0.099
66.000	81.906	0.099
66.100	63.876	0.100
66.200	64.872	0.100
66.300	40.254	0.100
66.400	79.048	0.099
66.500	96.249	0.099
66.600	43.360	0.099
66.700	80.885	0.099
66.800	61.077	0.099
66.900	65.696	0.099
67.000	43.098	0.099
67.100	75.991	0.099
67.200	72.253	0.099
67.300	64.049	0.099
67.400	39.594	0.099
67.500	44.011	0.099
67.600	72.248	0.099
67.700	57.907	0.099
67.800	38.689	0.099
67.900	69.050	0.099
68.000	41.247	0.099
68.100	70.086	0.099
68.200	49.741	0.099
68.300	74.865	0.099
68.400	87.639	0.099
68.500	74.132	0.099
68.600	57.098	0.100
68.700	60.250	0.099
68.800	62.171	0.099
68.900	63.969	0.099
69.000	54.424	0.099
69.100	58.014	0.099
69.200	86.359	0.099
69.300	89.035	0.099
69.400	89.547	0.099
69.500	58.255	0.099
69.600	53.613	0.099
69.700	73.152	0.099
69.800	65.090	0.099
69.900	69.252	0.099
70.000	81.237	0.099
70.100	64.413	0.099
70.200	34.934	0.099
70.300	58.200	0.099
70.400	69.319	0.100
70.500	57.018	0.099
70.600	61.416	0.099
70.700	56.830	0.099
70.800	55.233	0.099
70.900	104.732	0.099
71.000	78.907	0.099
71.100	60.636	0.099
71.200	66.647	0.099
71.300	89.315	0.099
71.400	55.750	0.099
71.500	81.399	0.099
71.600	54.700	0.099
71.700	66.567	0.099
71.800	74.889	0.099
71.900	115.084	0.099
72.000	95.417	0.099
72.100	71.187	0.099
72.200	85.455	0.099
72.300	50.951	0.099
72.400	63.584	0.099
72.500	49.222	0.099
72.600	95.480	0.099
72.700	92.092	0.099
72.800	69.683	0.099
72.900	53.038	0.099
73.000	58.721	0.099
73.100	68.118	0.099
73.200	58.328	0.100
73.300	61.715	0.099
73.400	82.215	0.099
73.500	89.231	0.099
73.600	52.732	0.099
73.700	51.181	0.099
73.800	46.362	0.099
73.900	60.034	0.099
74.000	41.989	0.099
74.100	95.916	0.099
74.200	74.759	0.099
74.300	92.051	0.099
74.400	61.114	0.099
74.500	81.893	0.099
74.600	84.792	0.099
74.700	26.457	0.099
74.800	65.610	0.099
74.900	70.476	0.099
75.000	70.176	0.099
75.100	66.699	0.099
75.200	65.844	0.099
75.300	48.276	0.099
75.400	64.087	0.099
75.500	53.245	0.099
75.600	88.040	0.099
75.700	72.914	0.099
75.800	91.932	0.099
75.900	42.273	0.099
76.000	61.816	0.099
76.100	61.006	0.099
76.200	74.837	0.099
76.300	72.370	0.099
76.400	91.970	0.099
76.500	80.499	0.099
76.600	69.692	0.099
76.700	73.040	0.099
76.800	52.109	0.099
76.900	63.092	0.100
77.000	58.430	0.099
77.100	60.051	0.099
77.200	65.616	0.099
77.300	44.914	0.099
77.400	88.256	0.099
77.500	67.396	0.099
77.600	73.908	0.099
77.700	58.313	0.099
77.800	59.019	0.099
77.900	55.425	0.099
78.000	81.709	0.099
78.100	64.683	0.099
78.200	69.246	0.099
78.300	74.439	0.099
78.400	78.977	0.099
78.500	67.579	0.099
78.600	72.491	0.099
78.700	75.015	0.099
78.800	94.624	0.099
78.900	78.223	0.099
79.000	78.048	0.099
79.100	71.317	0.099
79.200	99.242	0.099
79.300	99.633	0.099
79.400	87.607	0.099
79.500	52.233	0.099
79.600	21.295	0.099
79.700	69.939	0.099
79.800	80.416	0.099
79.900	86.699	0.099
80.000	62.465	0.099
80.100	78.460	0.099
80.200	99.171	0.099
80.300	72.678	0.099
80.400	84.147	0.099
80.500	59.936	0.099
80.600	83.375	0.099
80.700	55.275	0.099
80.800	80.196	0.099
80.900	86.272	0.099
81.000	71.930	0.099
81.100	97.205	0.099
81.200	71.537	0.099
81.300	73.159	0.099
81.400	70.231	0.099
81.500	76.061	0.099
81.600	45.725	0.099
81.700	103.538	0.099
81.800	59.556	0.099
81.900	63.609	0.099
82.000	87.155	0.099
82.100	72.253	0.099
82.200	68.792	0.099
82.300	86.190	0.099
82.400	74.465	0.099
82.500	77.743	0.099
82.600	58.251	0.099
82.700	91.453	0.099
82.800	86.254	0.099
82.900	74.629	0.099
83.000	85.515	0.099
83.100	92.132	0.100
83.200	66.613	0.099
83.300	52.138	0.099
83.400	68.964	0.099
83.500	75.742	0.099
83.600	68.467	0.099
83.700	51.788	0.099
83.800	95.556	0.100
83.900	76.260	0.099
84.000	81.959	0.099
84.100	71.355	0.099
84.200	88.789	0.100
84.300	88.477	0.099
84.400	61.654	0.099
84.500	84.227	0.099
84.600	83.324	0.099
84.700	103.092	0.099
84.800	55.989	0.099
84.900	67.367	0.099
85.000	43.819	0.099
85.100	95.529	0.100
85.200	96.359	0.100
85.300	82.096	0.100
85.400	45.328	0.099
85.500	85.044	0.099
85.600	79.823	0.099
85.700	84.611	0.099
85.800	90.250	0.099
85.900	56.662	0.099
86.000	71.256	0.099
86.100	58.092	0.099
86.200	95.207	0.099
86.300	66.460	0.099
86.400	74.123	0.099
86.500	38.915	0.100
86.600	105.041	0.099
86.700	86.556	0.099
86.800	83.700	0.099
86.900	84.588	0.099
87.000	70.756	0.100
87.100	60.743	0.099
87.200	68.905	0.099
87.300	85.941	0.099
87.400	90.326	0.099
87.500	76.978	0.099
87.600	73.475	0.099
87.700	85.511	0.099
87.800	48.162	0.099
87.900	79.846	0.099
88.000	88.408	0.099
88.100	75.105	0.099
88.200	63.302	0.099
88.300	92.614	0.099
88.400	66.882	0.099
88.500	72.925	0.099
88.600	94.584	0.099
88.700	74.853	0.099
88.800	77.067	0.099
88.900	90.699	0.099
89.000	92.761	0.099
89.100	103.438	0.099
89.200	75.031	0.099
89.300	87.681	0.099
89.400	99.811	0.099
89.500	62.549	0.099
89.600	81.618	0.100
89.700	82.075	0.099
89.800	74.298	0.099
89.900	73.283	0.099
90.000	83.399	0.099
90.100	80.860	0.099
90.200	64.845	0.099
90.300	77.267	0.099
90.400	75.929	0.099
90.500	84.828	0.099
90.600	66.213	0.099
90.700	78.387	0.099
90.800	63.910	0.099
90.900	88.965	0.099
91.000	73.956	0.099
91.100	59.596	0.099
91.200	55.349	0.099
91.300	64.923	0.099
91.400	90.393	0.099
91.500	60.290	0.099
91.600	43.825	0.099
91.700	36.012	0.099
91.800	61.868	0.099
91.900	53.744	0.100
92.000	53.464	0.099
92.100	36.378	0.099
92.200	41.585	0.099
92.300	35.238	0.099
92.400	51.990	0.099
92.500	62.282	0.100
92.600	14.936	0.099
92.700	36.925	0.099
92.800	32.596	0.099
92.900	54.215	0.099
93.000	31.441	0.099
93.100	5.040	0.099
93.200	2.267	0.099
93.300	11.435	0.099
93.400	10.172	0.099
93.500	29.866	0.099
93.600	10.829	0.099
93.700	18.929	0.099
93.800	-8.731	0.099
93.900	-19.155	0.099
94.000	-5.995	0.099
94.100	40.744	0.099
94.200	20.388	0.099
94.300	17.879	0.099
94.400	15.366	0.099
