time /s	I /nA	E /V
0.100	-10.175	0.099
0.200	-23.434	0.099
0.300	-4.760	0.099
0.400	2.164	0.099
0.500	-9.722	0.099
0.600	-1.519	0.099
0.700	-9.245	0.099
0.800	-7.519	0.099
0.900	-12.647	0.099
1.000	11.817	0.099
1.100	-2.139	0.099
1.200	-27.274	0.099
1.300	8.856	0.099
1.400	-13.450	0.099
1.500	-17.094	0.099
1.600	-19.480	0.099
1.700	-1.338	0.099
1.800	-19.165	0.099
1.900	-11.410	0.099
2.000	-14.478	0.099
2.100	1.697	0.099
2.200	-13.728	0.099
2.300	-13.576	0.099
2.400	-6.549	0.099
2.500	-5.579	0.099
2.600	-19.877	0.099
2.700	1.539	0.099
2.800	-28.716	0.099
2.900	1.890	0.099
3.000	-11.540	0.099
3.100	-14.116	0.099
3.200	13.521	0.099
3.300	-30.450	0.099
3.400	10.098	0.099
3.500	-6.449	0.099
3.600	-13.218	0.099
3.700	-1.711	0.099
3.800	-11.161	0.099
3.900	-10.728	0.099
4.000	-6.253	0.099
4.100	-23.959	0.099
4.200	-0.253	0.099
4.300	-14.351	0.099
4.400	-12.545	0.099
4.500	-4.275	0.099
4.600	-12.856	0.099
4.700	-17.287	0.099
4.800	10.666	0.099
4.900	-10.260	0.099
5.000	-23.609	0.099
5.100	12.065	0.099
5.200	-6.264	0.099
5.300	0.559	0.099
5.400	-5.916	0.099
5.500	-22.252	0.099
5.600	0.087	0.099
5.700	-16.353	0.099
5.800	-22.694	0.099
5.900	0.675	0.099
6.000	-25.141	0.099
6.100	-2.845	0.099
6.200	6.635	0.099
6.300	-12.002	0.099
6.400	-18.758	0.099
6.500	5.827	0.099
6.600	-23.340	0.099
6.700	-6.070	0.099
6.800	1.957	0.099
6.900	-6.659	0.099
7.000	-6.501	0.099
7.100	-6.547	0.099
7.200	4.223	0.099
7.300	-8.143	0.099
7.400	-25.783	0.099
7.500	-6.363	0.099
7.600	1.489	0.099
7.700	-22.553	0.099
7.800	-5.169	0.099
7.900	-20.828	0.099
8.000	-4.534	0.099
8.100	-9.757	0.099
8.200	-0.812	0.099
8.300	-19.793	0.099
8.400	-21.186	0.099
8.500	-5.812	0.099
8.600	-2.820	0.099
8.700	-17.956	0.099
8.800	-16.740	0.099
8.900	-6.603	0.099
9.000	6.529	0.099
9.100	-17.726	0.099
9.200	-5.023	0.099
9.300	1.576	0.099
9.400	-13.629	0.099
9.500	-0.155	0.099
9.600	-5.569	0.099
9.700	-35.495	0.099
9.800	1.817	0.099
9.900	7.304	0.099
10.000	-17.522	0.099
10.100	-9.770	0.099
10.200	-14.428	0.099
10.300	-20.066	0.099
10.400	-11.301	0.099
10.500	-9.925	0.099
10.600	0.100	0.099
10.700	-9.037	0.099
10.800	-1.939	0.099
10.900	-21.499	0.099
11.000	-16.641	0.099
11.100	-10.856	0.099
11.200	-9.746	0.099
11.300	-12.674	0.099
11.400	-0.513	0.099
11.500	4.854	0.099
11.600	-12.102	0.099
11.700	11.047	0.099
11.800	-5.870	0.099
11.900	-11.187	0.099
12.000	-10.502	0.099
12.100	-14.725	0.099
12.200	-7.857	0.099
12.300	-12.203	0.099
12.400	-3.616	0.099
12.500	-17.807	0.099
12.600	-9.350	0.099
12.700	-5.999	0.099
12.800	-12.502	0.099
12.900	-3.621	0.099
13.000	-15.055	0.099
13.100	-25.805	0.099
13.200	-21.719	0.099
13.300	-6.322	0.099
13.400	4.473	0.099
13.500	-10.596	0.099
13.600	7.512	0.099
13.700	4.397	0.099
13.800	2.616	0.099
13.900	-21.498	0.099
14.000	-20.556	0.099
14.100	-10.510	0.099
14.200	-34.333	0.099
14.300	-17.171	0.099
14.400	-1.062	0.099
14.500	-9.499	0.099
14.600	-7.500	0.099
14.700	-16.863	0.099
14.800	-12.551	0.099
14.900	1.512	0.099
15.000	-9.647	0.099
15.100	-5.077	0.099
15.200	-3.542	0.099
15.300	-11.571	0.099
15.400	-12.540	0.099
15.500	2.990	0.099
15.600	-23.712	0.099
15.700	-6.842	0.099
15.800	-6.393	0.099
15.900	-5.544	0.099
16.000	-10.248	0.099
16.100	-1.639	0.099
16.200	-15.355	0.099
16.300	-19.418	0.099
16.400	-22.949	0.099
16.500	2.422	0.099
16.600	-6.759	0.099
16.700	-9.202	0.099
16.800	-17.195	0.099
16.900	-13.224	0.099
17.000	-12.454	0.099
17.100	-13.597	0.099
17.200	-1.523	0.099
17.300	-4.565	0.099
17.400	5.498	0.099
17.500	-12.842	0.099
17.600	-24.136	0.099
17.700	-7.959	0.099
17.800	-10.718	0.099
17.900	-5.955	0.099
18.000	-17.645	0.099
18.100	-10.356	0.099
18.200	-11.022	0.099
18.300	-10.058	0.099
18.400	-3.833	0.099
18.500	6.579	0.099
18.600	-8.885	0.099
18.700	-31.334	0.099
18.800	-0.330	0.099
18.900	-17.253	0.099
19.000	-15.899	0.099
19.100	-4.145	0.100
19.200	-13.958	0.099
19.300	-18.536	0.099
19.400	-11.985	0.099
19.500	-9.983	0.099
19.600	-30.313	0.099
19.700	-15.671	0.099
19.800	0.742	0.099
19.900	-8.686	0.099
20.000	1.963	0.100
20.100	-19.393	0.099
20.200	-12.744	0.099
20.300	-19.101	0.099
20.400	1.424	0.099
20.500	-24.118	0.099
20.600	-1.758	0.099
20.700	-14.747	0.099
20.800	-4.415	0.099
20.900	-1.157	0.099
21.000	-0.056	0.099
21.100	1.125	0.099
21.200	-22.773	0.099
21.300	4.681	0.099
21.400	-5.333	0.099
21.500	-2.685	0.099
21.600	-13.810	0.100
21.700	-37.692	0.099
21.800	8.131	0.099
21.900	2.784	0.099
22.000	22.210	0.099
22.100	-14.208	0.099
22.200	-27.128	0.100
22.300	-1.079	0.099
22.400	-2.793	0.099
22.500	-23.297	0.099
22.600	-11.979	0.099
22.700	-7.629	0.099
22.800	-9.286	0.099
22.900	-15.649	0.099
23.000	-21.869	0.099
23.100	-0.771	0.099
23.200	-11.253	0.099
23.300	-9.014	0.099
23.400	-9.685	0.099
23.500	-32.634	0.099
23.600	0.414	0.099
23.700	16.592	0.099
23.800	-3.013	0.099
23.900	-14.283	0.099
24.000	-18.373	0.099
24.100	1.102	0.099
24.200	10.154	0.099
24.300	2.740	0.099
24.400	-9.286	0.099
24.500	-9.359	0.099
24.600	-18.145	0.099
24.700	-10.779	0.099
24.800	0.160	0.099
24.900	-14.134	0.099
25.000	-24.772	0.099
25.100	-7.762	0.099
25.200	5.101	0.099
25.300	-4.861	0.099
25.400	-14.132	0.099
25.500	-12.404	0.099
25.600	-10.499	0.099
25.700	-3.681	0.099
25.800	-1.703	0.099
25.900	-15.438	0.099
26.000	-27.870	0.099
26.100	6.081	0.099
26.200	-0.048	0.099
26.300	0.482	0.099
26.400	-5.405	0.099
26.500	-11.182	0.099
26.600	5.496	0.099
26.700	-13.323	0.099
26.800	-4.511	0.099
26.900	-6.668	0.099
27.000	-8.535	0.099
27.100	-16.242	0.099
27.200	-5.074	0.099
27.300	0.853	0.099
27.400	-5.061	0.099
27.500	-8.775	0.099
27.600	2.447	0.099
27.700	-8.437	0.099
27.800	-14.657	0.099
27.900	-1.742	0.099
28.000	-17.573	0.099
28.100	-10.951	0.099
28.200	-10.856	0.099
28.300	-13.823	0.099
28.400	-1.310	0.099
28.500	-1.469	0.099
28.600	-11.712	0.099
28.700	-16.767	0.099
28.800	-11.513	0.099
28.900	2.161	0.099
29.000	11.542	0.099
29.100	-12.582	0.099
29.200	-8.831	0.099
29.300	-17.181	0.099
29.400	-8.278	0.099
29.500	-22.827	0.099
29.600	-9.242	0.099
29.700	-12.051	0.099
29.800	-12.254	0.099
29.900	0.633	0.099
30.000	7.449	0.099
30.100	-11.193	0.099
30.200	-6.596	0.099
30.300	-20.691	0.099
30.400	9.177	0.099
30.500	3.632	0.099
30.600	-4.378	0.099
30.700	13.323	0.099
30.800	-12.383	0.099
30.900	-4.879	0.099
31.000	10.765	0.099
31.100	12.222	0.099
31.200	16.385	0.099
31.300	-21.424	0.099
31.400	21.635	0.099
31.500	6.597	0.099
31.600	2.207	0.099
31.700	9.175	0.099
31.800	15.091	0.099
31.900	5.760	0.099
32.000	9.621	0.099
32.100	9.217	0.099
32.200	27.972	0.099
32.300	21.114	0.099
32.400	34.237	0.099
32.500	29.151	0.099
32.600	22.749	0.099
32.700	7.402	0.099
32.800	36.450	0.099
32.900	43.344	0.100
33.000	24.435	0.099
33.100	37.069	0.099
33.200	36.462	0.099
33.300	40.608	0.099
33.400	38.061	0.099
33.500	40.536	0.099
33.600	41.559	0.099
33.700	36.377	0.099
33.800	38.064	0.099
33.900	61.464	0.099
34.000	56.618	0.099
34.100	44.382	0.099
34.200	51.221	0.099
34.300	60.497	0.099
34.400	50.459	0.099
34.500	28.860	0.099
34.600	55.898	0.099
34.700	80.200	0.099
34.800	55.652	0.099
34.900	60.008	0.099
35.000	61.929	0.099
35.100	54.783	0.099
35.200	69.640	0.099
35.300	59.549	0.099
35.400	47.072	0.099
35.500	62.066	0.099
35.600	70.033	0.099
35.700	74.506	0.099
35.800	74.139	0.099
35.900	68.775	0.099
36.000	64.565	0.099
36.100	57.393	0.099
36.200	64.617	0.099
36.300	75.326	0.099
36.400	87.093	0.099
36.500	72.490	0.099
36.600	58.754	0.099
36.700	64.683	0.099
36.800	35.529	0.099
36.900	49.757	0.099
37.000	64.136	0.099
37.100	68.306	0.099
37.200	64.138	0.099
37.300	55.119	0.099
37.400	61.396	0.099
37.500	48.559	0.099
37.600	76.007	0.099
37.700	67.703	0.099
37.800	51.833	0.099
37.900	58.532	0.099
38.000	58.982	0.099
38.100	71.909	0.099
38.200	75.634	0.099
38.300	83.310	0.099
38.400	62.537	0.099
38.500	70.253	0.099
38.600	66.374	0.099
38.700	53.104	0.099
38.800	62.646	0.099
38.900	48.631	0.099
39.000	87.908	0.099
39.100	81.310	0.099
39.200	43.686	0.099
39.300	62.344	0.099
39.400	63.618	0.099
39.500	51.314	0.099
39.600	69.285	0.099
39.700	82.272	0.099
39.800	60.959	0.099
39.900	66.839	0.099
40.000	70.931	0.099
40.100	88.412	0.099
40.200	57.454	0.099
40.300	71.204	0.099
40.400	72.187	0.099
40.500	66.348	0.099
40.600	66.835	0.099
40.700	65.257	0.099
40.800	48.598	0.099
40.900	65.030	0.099
41.000	77.235	0.099
41.100	64.487	0.099
41.200	60.143	0.099
41.300	74.169	0.099
41.400	61.724	0.099
41.500	55.214	0.099
41.600	58.917	0.099
41.700	58.397	0.099
41.800	75.578	0.099
41.900	58.975	0.099
42.000	63.391	0.099
42.100	76.267	0.099
42.200	52.022	0.099
42.300	52.138	0.099
42.400	43.679	0.099
42.500	49.392	0.099
42.600	70.999	0.099
42.700	58.991	0.099
42.800	62.295	0.099
42.900	70.202	0.099
43.000	69.146	0.099
43.100	43.522	0.099
43.200	56.228	0.099
43.300	61.175	0.099
43.400	69.298	0.099
43.500	71.607	0.099
43.600	49.224	0.099
43.700	62.097	0.099
43.800	46.141	0.099
43.900	45.998	0.099
44.000	64.196	0.099
44.100	72.895	0.099
44.200	40.599	0.099
44.300	49.966	0.099
44.400	66.431	0.099
44.500	64.783	0.099
44.600	60.080	0.099
44.700	37.077	0.099
44.800	63.402	0.099
44.900	57.183	0.099
45.000	58.333	0.099
45.100	69.430	0.099
45.200	58.147	0.099
45.300	61.342	0.099
45.400	61.619	0.099
45.500	63.353	0.099
45.600	70.423	0.099
45.700	58.659	0.099
45.800	72.211	0.099
45.900	30.758	0.099
46.000	62.789	0.099
46.100	63.014	0.099
46.200	55.786	0.099
46.300	57.645	0.099
46.400	29.475	0.099
46.500	43.295	0.099
46.600	43.787	0.099
46.700	53.577	0.099
46.800	75.099	0.099
46.900	75.125	0.099
47.000	51.535	0.099
47.100	74.337	0.099
47.200	43.505	0.099
47.300	63.898	0.099
47.400	62.539	0.099
47.500	47.538	0.099
47.600	70.984	0.099
47.700	54.541	0.099
47.800	52.636	0.099
47.900	57.122	0.099
48.000	46.071	0.099
48.100	65.916	0.099
48.200	58.796	0.099
48.300	47.811	0.099
48.400	47.024	0.099
48.500	53.097	0.099
48.600	65.904	0.099
48.700	34.076	0.099
48.800	45.265	0.099
48.900	66.570	0.099
49.000	77.273	0.099
49.100	66.055	0.099
49.200	54.741	0.099
49.300	55.488	0.099
49.400	45.500	0.099
49.500	37.644	0.099
49.600	57.846	0.099
49.700	59.294	0.099
49.800	41.324	0.099
49.900	30.725	0.099
50.000	42.769	0.099
50.100	70.726	0.099
50.200	62.137	0.099
50.300	56.516	0.099
50.400	57.212	0.099
50.500	47.218	0.099
50.600	44.966	0.099
50.700	45.247	0.099
50.800	59.163	0.099
50.900	53.600	0.099
51.000	61.954	0.099
51.100	32.435	0.099
51.200	50.887	0.099
51.300	52.475	0.099
51.400	55.979	0.099
51.500	52.004	0.099
51.600	56.480	0.099
51.700	53.262	0.099
51.800	44.744	0.099
51.900	37.002	0.099
52.000	41.317	0.099
52.100	71.528	0.099
52.200	67.841	0.099
52.300	67.806	0.099
52.400	59.757	0.099
52.500	45.587	0.099
52.600	53.736	0.099
52.700	53.446	0.099
52.800	49.386	0.099
52.900	40.829	0.099
53.000	57.347	0.099
53.100	60.755	0.099
53.200	61.415	0.099
53.300	52.993	0.099
53.400	54.743	0.099
53.500	42.178	0.099
53.600	33.898	0.099
53.700	44.523	0.099
53.800	63.773	0.099
53.900	59.890	0.099
54.000	56.730	0.099
54.100	54.209	0.099
54.200	53.588	0.099
54.300	51.093	0.099
54.400	65.013	0.099
54.500	60.365	0.099
54.600	61.339	0.099
54.700	59.081	0.099
54.800	47.484	0.099
54.900	66.001	0.099
55.000	51.403	0.099
55.100	44.943	0.099
55.200	61.300	0.099
55.300	60.019	0.099
55.400	40.763	0.099
55.500	53.664	0.099
55.600	66.049	0.099
55.700	61.351	0.099
55.800	57.918	0.099
55.900	58.170	0.099
56.000	53.004	0.099
56.100	39.138	0.099
56.200	62.438	0.099
56.300	67.376	0.099
56.400	62.669	0.099
56.500	59.223	0.099
56.600	72.726	0.099
56.700	68.082	0.099
56.800	45.035	0.099
56.900	46.857	0.099
57.000	48.739	0.099
57.100	44.576	0.099
57.200	76.850	0.099
57.300	52.397	0.099
57.400	49.409	0.099
57.500	52.000	0.099
57.600	40.984	0.099
57.700	57.724	0.099
57.800	37.969	0.099
57.900	74.649	0.099
58.000	66.566	0.099
58.100	50.735	0.099
58.200	55.737	0.099
58.300	50.836	0.099
58.400	49.072	0.099
58.500	58.946	0.099
58.600	62.059	0.099
58.700	75.306	0.099
58.800	65.810	0.099
58.900	64.177	0.099
59.000	63.590	0.099
59.100	49.582	0.099
59.200	60.742	0.099
59.300	44.156	0.099
59.400	53.299	0.099
59.500	67.292	0.099
59.600	65.217	0.099
59.700	44.401	0.099
59.800	45.096	0.099
59.900	57.299	0.099
60.000	69.010	0.099
60.100	62.939	0.099
60.200	66.270	0.099
60.300	37.671	0.099
60.400	66.949	0.099
60.500	60.891	0.099
60.600	50.019	0.099
60.700	58.837	0.099
60.800	39.391	0.099
60.900	46.801	0.099
61.000	62.003	0.099
61.100	72.727	0.099
61.200	63.429	0.099
61.300	67.806	0.099
61.400	62.562	0.099
61.500	56.188	0.099
61.600	58.971	0.099
61.700	57.679	0.099
61.800	47.740	0.099
61.900	64.560	0.099
62.000	68.575	0.099
62.100	60.333	0.099
62.200	51.271	0.099
62.300	41.216	0.099
62.400	80.238	0.099
62.500	50.034	0.099
62.600	51.452	0.099
62.700	47.948	0.099
62.800	65.943	0.099
62.900	68.709	0.099
63.000	78.631	0.099
63.100	61.312	0.099
63.200	60.224	0.099
63.300	72.951	0.099
63.400	68.314	0.099
63.500	66.162	0.099
63.600	69.673	0.099
63.700	41.289	0.099
63.800	47.220	0.099
63.900	62.786	0.099
64.000	84.443	0.099
64.100	65.278	0.099
64.200	66.175	0.099
64.300	78.506	0.099
64.400	61.583	0.099
64.500	76.407	0.099
64.600	52.180	0.099
64.700	63.196	0.099
64.800	50.897	0.099
64.900	71.380	0.099
65.000	61.839	0.099
65.100	65.455	0.099
65.200	67.214	0.099
65.300	52.720	0.099
65.400	70.304	0.099
65.500	62.976	0.099
65.600	59.782	0.099
65.700	48.647	0.099
65.800	61.042	0.099
65.900	35.835	0.099
66.000	58.734	0.099
66.100	42.621	0.099
66.200	71.564	0.099
66.300	78.566	0.099
66.400	70.200	0.099
66.500	62.871	0.099
66.600	60.747	0.099
66.700	61.740	0.099
66.800	56.179	0.099
66.900	92.073	0.099
67.000	67.525	0.099
67.100	79.166	0.099
67.200	60.072	0.099
67.300	38.521	0.099
67.400	61.160	0.099
67.500	53.441	0.099
67.600	76.728	0.099
67.700	66.706	0.099
67.800	57.826	0.099
67.900	86.731	0.099
68.000	46.957	0.099
68.100	62.993	0.099
68.200	71.633	0.099
68.300	51.517	0.099
68.400	55.258	0.099
68.500	56.925	0.099
68.600	86.858	0.099
68.700	61.433	0.099
68.800	60.082	0.099
68.900	64.540	0.099
69.000	68.757	0.099
69.100	55.083	0.099
69.200	72.503	0.099
69.300	67.678	0.099
69.400	59.456	0.099
69.500	73.347	0.099
69.600	80.899	0.099
69.700	41.966	0.099
69.800	45.315	0.099
69.900	84.400	0.099
70.000	59.836	0.099
70.100	73.398	0.099
70.200	80.594	0.099
70.300	66.406	0.099
70.400	43.337	0.099
70.500	56.360	0.099
70.600	68.900	0.099
70.700	76.323	0.099
70.800	70.526	0.099
70.900	62.942	0.099
71.000	60.649	0.099
71.100	77.582	0.099
71.200	85.102	0.099
71.300	73.775	0.099
71.400	52.246	0.099
71.500	57.465	0.099
71.600	66.289	0.099
71.700	66.721	0.099
71.800	69.219	0.099
71.900	59.549	0.099
72.000	58.455	0.099
72.100	82.647	0.099
72.200	50.668	0.099
72.300	71.699	0.099
72.400	44.524	0.099
72.500	61.048	0.099
72.600	67.862	0.099
72.700	72.025	0.099
72.800	81.653	0.099
72.900	79.920	0.099
73.000	60.466	0.099
73.100	72.775	0.099
73.200	56.587	0.099
73.300	76.435	0.099
73.400	61.863	0.099
73.500	50.613	0.099
73.600	67.352	0.099
73.700	52.394	0.099
73.800	70.925	0.099
73.900	68.303	0.099
74.000	73.127	0.099
74.100	57.161	0.099
74.200	67.762	0.099
74.300	57.545	0.099
74.400	61.954	0.100
74.500	71.605	0.099
74.600	56.379	0.099
74.700	76.717	0.099
74.800	66.378	0.099
74.900	59.037	0.099
75.000	75.043	0.099
75.100	45.179	0.099
75.200	60.281	0.099
75.300	64.938	0.099
75.400	68.894	0.100
75.500	75.612	0.099
75.600	75.027	0.100
75.700	71.291	0.100
75.800	76.486	0.099
75.900	74.080	0.099
76.000	61.669	0.099
76.100	66.659	0.099
76.200	69.322	0.099
76.300	71.398	0.099
76.400	73.929	0.099
76.500	71.569	0.099
76.600	77.770	0.099
76.700	76.137	0.099
76.800	75.722	0.099
76.900	63.217	0.099
77.000	63.467	0.099
77.100	80.615	0.099
77.200	75.728	0.099
77.300	62.978	0.099
77.400	68.242	0.099
77.500	62.057	0.099
77.600	76.860	0.099
77.700	66.364	0.099
77.800	77.606	0.099
77.900	69.780	0.099
78.000	75.795	0.099
78.100	74.332	0.099
78.200	88.857	0.099
78.300	53.199	0.099
78.400	76.186	0.099
78.500	82.914	0.099
78.600	65.935	0.099
78.700	67.345	0.099
78.800	67.402	0.099
78.900	67.756	0.099
79.000	56.838	0.099
79.100	83.289	0.099
79.200	89.274	0.099
79.300	63.700	0.099
79.400	66.294	0.099
79.500	74.713	0.100
79.600	82.977	0.099
79.700	93.583	0.099
79.800	70.645	0.099
79.900	61.729	0.099
80.000	54.729	0.099
80.100	61.144	0.099
80.200	74.325	0.099
80.300	76.033	0.099
80.400	66.333	0.099
80.500	74.004	0.099
80.600	59.071	0.099
80.700	88.895	0.099
80.800	76.364	0.099
80.900	51.909	0.099
81.000	60.718	0.100
81.100	79.983	0.099
81.200	80.670	0.099
81.300	62.283	0.099
81.400	39.122	0.099
81.500	61.605	0.099
81.600	64.938	0.099
81.700	78.026	0.099
81.800	54.114	0.099
81.900	79.147	0.099
82.000	58.337	0.099
82.100	68.053	0.099
82.200	84.233	0.099
82.300	73.308	0.099
82.400	66.920	0.099
82.500	64.265	0.099
82.600	80.083	0.099
82.700	77.127	0.099
82.800	63.637	0.099
82.900	75.589	0.099
83.000	85.413	0.099
83.100	49.634	0.099
83.200	72.471	0.099
83.300	48.411	0.099
83.400	77.227	0.099
83.500	80.855	0.099
83.600	66.733	0.099
83.700	40.584	0.099
83.800	82.801	0.099
83.900	79.307	0.099
84.000	76.740	0.099
84.100	64.615	0.099
84.200	72.871	0.099
84.300	66.275	0.100
84.400	74.038	0.099
84.500	84.144	0.099
84.600	78.625	0.099
84.700	71.504	0.099
84.800	70.998	0.099
84.900	81.606	0.099
85.000	76.869	0.099
85.100	85.476	0.099
85.200	100.644	0.099
85.300	75.318	0.099
85.400	71.479	0.099
85.500	88.789	0.099
85.600	74.321	0.099
85.700	59.501	0.099
85.800	88.946	0.099
85.900	85.357	0.099
86.000	71.441	0.100
86.100	73.297	0.099
86.200	67.894	0.099
86.300	74.358	0.099
86.400	72.741	0.099
86.500	71.369	0.099
86.600	57.459	0.099
86.700	58.840	0.099
86.800	76.670	0.099
86.900	66.123	0.099
87.000	96.474	0.099
87.100	66.017	0.100
87.200	79.734	0.099
87.300	71.049	0.099
87.400	72.966	0.099
87.500	78.784	0.099
87.600	65.560	0.099
87.700	62.815	0.099
87.800	77.991	0.099
87.900	74.064	0.099
88.000	57.248	0.099
88.100	88.065	0.099
88.200	71.734	0.100
88.300	79.086	0.099
88.400	66.519	0.099
88.500	73.333	0.099
88.600	75.943	0.099
88.700	77.627	0.099
88.800	75.674	0.100
88.900	84.882	0.099
89.000	62.886	0.099
89.100	64.212	0.099
89.200	90.304	0.099
89.300	81.421	0.099
89.400	63.384	0.099
89.500	62.330	0.099
89.600	64.729	0.099
89.700	86.758	0.099
89.800	87.697	0.099
89.900	74.657	0.099
90.000	63.004	0.099
90.100	77.899	0.099
90.200	45.585	0.099
90.300	60.795	0.099
90.400	80.181	0.099
90.500	63.251	0.099
90.600	52.784	0.099
90.700	44.284	0.099
90.800	37.662	0.099
90.900	39.881	0.099
91.000	33.921	0.099
91.100	34.165	0.099
91.200	16.224	0.099
91.300	22.428	0.099
91.400	26.275	0.099
91.500	23.067	0.099
91.600	46.871	0.099
91.700	23.312	0.099
91.800	12.706	0.099
91.900	24.416	0.099
92.000	-3.390	0.099
92.100	17.187	0.099
92.200	17.090	0.099
92.300	18.472	0.100
92.400	-1.232	0.099
92.500	-0.635	0.099
92.600	2.427	0.099
92.700	9.497	0.099
92.800	9.926	0.099
92.900	-23.349	0.099
93.000	0.510	0.099
93.100	-16.518	0.099
93.200	-3.723	0.099
93.300	-5.503	0.099
93.400	-24.690	0.099
93.500	-12.166	0.099
93.600	-21.955	0.099
93.700	-2.738	0.099
93.800	-10.414	0.099
93.900	-13.792	0.100
94.000	-17.353	0.099
94.100	-19.102	0.099
94.200	-13.462	0.099
94.300	-27.019	0.099
94.400	-10.793	0.099
94.500	-24.746	0.099
94.600	-13.457	0.099
94.700	-0.879	0.099
94.800	-23.317	0.100
94.900	-37.631	0.099
95.000	-37.818	0.099
95.100	-34.256	0.099
