time /s	I /nA	E /V
0.100	0.217	0.100
0.200	10.648	0.100
0.300	-16.371	0.100
0.400	-0.652	0.100
0.500	-18.384	0.100
0.600	-20.315	0.100
0.700	-13.322	0.100
0.800	-1.008	0.100
0.900	-17.746	0.100
1.000	-12.877	0.100
1.100	-20.192	0.100
1.200	2.349	0.100
1.300	-20.203	0.100
1.400	-13.914	0.100
1.500	-31.763	0.100
1.600	-8.008	0.100
1.700	-19.219	0.100
1.800	-17.676	0.100
1.900	-10.447	0.100
2.000	-19.919	0.100
2.100	-11.766	0.100
2.200	-7.340	0.100
2.300	-13.628	0.100
2.400	-14.687	0.100
2.500	-19.377	0.100
2.600	-14.450	0.100
2.700	-17.981	0.100
2.800	-5.461	0.100
2.900	-15.116	0.100
3.000	-25.436	0.100
3.100	-7.212	0.100
3.200	-20.051	0.100
3.300	-13.066	0.100
3.400	20.231	0.100
3.500	-13.451	0.100
3.600	-32.858	0.100
3.700	-16.631	0.100
3.800	-4.495	0.100
3.900	-8.321	0.100
4.000	-18.251	0.100
4.100	-20.180	0.100
4.200	-5.515	0.100
4.300	-19.196	0.100
4.400	-8.264	0.100
4.500	-31.999	0.100
4.600	-9.007	0.100
4.700	-9.307	0.100
4.800	-8.028	0.100
4.900	-21.425	0.100
5.000	-20.715	0.100
5.100	-1.011	0.100
5.200	-14.882	0.100
5.300	1.667	0.100
5.400	-14.520	0.100
5.500	-8.003	0.100
5.600	-19.941	0.100
5.700	-3.314	0.100
5.800	-10.634	0.100
5.900	-11.524	0.100
6.000	-15.587	0.100
6.100	23.851	0.100
6.200	-8.455	0.100
6.300	-29.707	0.100
6.400	-17.179	0.100
6.500	-21.405	0.100
6.600	-9.250	0.100
6.700	-7.830	0.100
6.800	-16.214	0.100
6.900	-21.372	0.100
7.000	-0.798	0.100
7.100	-8.764	0.100
7.200	-20.579	0.100
7.300	12.089	0.100
7.400	-36.385	0.100
7.500	-34.604	0.100
7.600	-9.118	0.100
7.700	-20.386	0.100
7.800	-9.075	0.100
7.900	-29.698	0.100
8.000	-24.958	0.100
8.100	-11.439	0.100
8.200	-21.160	0.100
8.300	-5.885	0.100
8.400	-9.724	0.100
8.500	-0.921	0.100
8.600	-6.737	0.100
8.700	-12.473	0.100
8.800	-13.129	0.100
8.900	-2.043	0.100
9.000	-1.927	0.100
9.100	-25.894	0.100
9.200	-16.121	0.100
9.300	-21.255	0.100
9.400	-17.887	0.100
9.500	-20.809	0.100
9.600	-15.637	0.100
9.700	-15.541	0.100
9.800	-16.673	0.100
9.900	-18.384	0.100
10.000	1.563	0.100
10.100	-19.816	0.100
10.200	-13.911	0.100
10.300	-9.894	0.100
10.400	-15.234	0.100
10.500	-11.065	0.100
10.600	-17.224	0.100
10.700	-25.695	0.100
10.800	-1.077	0.100
10.900	-16.085	0.100
11.000	-6.634	0.100
11.100	-10.070	0.100
11.200	-7.691	0.100
11.300	-24.247	0.100
11.400	10.752	0.100
11.500	3.365	0.100
11.600	-10.587	0.100
11.700	-20.860	0.100
11.800	-17.074	0.100
11.900	-6.011	0.100
12.000	-16.889	0.100
12.100	-10.158	0.100
12.200	-9.635	0.100
12.300	-40.549	0.100
12.400	5.727	0.100
12.500	-13.171	0.100
12.600	6.163	0.100
12.700	-1.915	0.100
12.800	-0.411	0.100
12.900	-7.247	0.100
13.000	-40.412	0.100
13.100	-6.929	0.100
13.200	-0.968	0.100
13.300	-16.387	0.100
13.400	-21.018	0.100
13.500	-22.095	0.100
13.600	-27.530	0.100
13.700	-0.400	0.100
13.800	-25.146	0.100
13.900	-11.586	0.100
14.000	0.253	0.100
14.100	-20.046	0.100
14.200	-14.415	0.100
14.300	-33.353	0.100
14.400	-17.812	0.100
14.500	-20.460	0.100
14.600	-1.697	0.100
14.700	-7.337	0.100
14.800	-22.316	0.100
14.900	-16.162	0.100
15.000	-17.140	0.100
15.100	-2.021	0.100
15.200	-4.280	0.100
15.300	-5.262	0.100
15.400	-27.114	0.100
15.500	-15.271	0.100
15.600	-6.547	0.100
15.700	-7.888	0.100
15.800	-10.642	0.100
15.900	-23.055	0.100
16.000	-7.918	0.100
16.100	-4.435	0.100
16.200	-13.119	0.100
16.300	1.307	0.100
16.400	-21.532	0.100
16.500	-24.190	0.100
16.600	-1.440	0.100
16.700	-0.469	0.100
16.800	-7.635	0.100
16.900	-0.822	0.100
17.000	-30.309	0.100
17.100	-14.362	0.100
17.200	-0.361	0.100
17.300	-8.295	0.100
17.400	16.118	0.100
17.500	-13.659	0.100
17.600	-8.288	0.100
17.700	-10.876	0.100
17.800	-29.118	0.100
17.900	-10.307	0.100
18.000	4.419	0.100
18.100	7.753	0.100
18.200	-11.893	0.100
18.300	-22.868	0.100
18.400	-27.535	0.100
18.500	-10.981	0.100
18.600	-3.095	0.100
18.700	-1.469	0.100
18.800	-19.724	0.100
18.900	-0.417	0.100
19.000	-9.511	0.100
19.100	-17.489	0.100
19.200	-25.579	0.100
19.300	-5.225	0.100
19.400	-15.965	0.100
19.500	-18.978	0.100
19.600	-24.401	0.100
19.700	2.214	0.100
19.800	-13.031	0.100
19.900	-9.646	0.100
20.000	-34.230	0.100
20.100	8.320	0.100
20.200	2.820	0.100
20.300	-26.606	0.100
20.400	-9.120	0.100
20.500	-16.042	0.100
20.600	-21.925	0.100
20.700	5.143	0.100
20.800	-14.430	0.100
20.900	-21.782	0.100
21.000	-15.117	0.100
21.100	-12.843	0.100
21.200	-6.701	0.100
21.300	-10.023	0.100
21.400	-10.067	0.100
21.500	3.586	0.100
21.600	-17.171	0.100
21.700	-8.278	0.100
21.800	-14.620	0.100
21.900	-15.315	0.100
22.000	-13.456	0.100
22.100	-2.526	0.100
22.200	-12.300	0.100
22.300	-14.513	0.100
22.400	-24.059	0.100
22.500	3.525	0.100
22.600	-16.172	0.100
22.700	-14.268	0.100
22.800	-3.520	0.100
22.900	7.001	0.100
23.000	-13.298	0.100
23.100	-2.628	0.100
23.200	-18.008	0.100
23.300	-9.205	0.100
23.400	-32.381	0.100
23.500	-6.354	0.100
23.600	-8.040	0.100
23.700	-8.195	0.100
23.800	-7.189	0.100
23.900	-7.880	0.100
24.000	-23.214	0.100
24.100	5.273	0.100
24.200	-26.992	0.100
24.300	-10.881	0.100
24.400	11.071	0.100
24.500	1.777	0.100
24.600	-21.167	0.100
24.700	-14.939	0.100
24.800	-6.766	0.100
24.900	-1.166	0.100
25.000	-5.005	0.100
25.100	-2.671	0.100
25.200	-11.811	0.100
25.300	-15.811	0.100
25.400	-14.202	0.100
25.500	-7.527	0.100
25.600	-9.251	0.100
25.700	-3.733	0.100
25.800	-24.868	0.100
25.900	-9.476	0.100
26.000	-6.839	0.100
26.100	-23.798	0.100
26.200	-11.826	0.100
26.300	-7.075	0.100
26.400	1.451	0.100
26.500	-12.568	0.100
26.600	-15.377	0.100
26.700	4.391	0.100
26.800	-14.252	0.100
26.900	-18.560	0.100
27.000	-7.541	0.100
27.100	-18.796	0.100
27.200	4.071	0.100
27.300	-5.345	0.100
27.400	-9.947	0.100
27.500	-15.877	0.100
27.600	-5.858	0.100
27.700	-6.594	0.100
27.800	-22.828	0.100
27.900	-20.290	0.100
28.000	-15.625	0.100
28.100	-11.417	0.100
28.200	-0.652	0.100
28.300	-17.004	0.100
28.400	-25.393	0.100
28.500	14.404	0.100
28.600	-6.727	0.100
28.700	-22.143	0.100
28.800	-1.682	0.100
28.900	-1.098	0.100
29.000	-25.679	0.100
29.100	-13.089	0.100
29.200	-6.459	0.100
29.300	-17.975	0.100
29.400	-13.938	0.100
29.500	1.837	0.100
29.600	-13.904	0.100
29.700	-7.756	0.100
29.800	-4.850	0.100
29.900	-3.714	0.100
30.000	-15.037	0.100
30.100	-19.734	0.100
30.200	-23.525	0.100
30.300	-11.028	0.100
30.400	-1.387	0.100
30.500	-6.791	0.100
30.600	1.955	0.100
30.700	-5.321	0.100
30.800	1.575	0.100
30.900	4.912	0.100
31.000	-9.074	0.100
31.100	20.568	0.100
31.200	3.958	0.100
31.300	11.186	0.100
31.400	-5.053	0.100
31.500	-6.709	0.100
31.600	20.819	0.100
31.700	-4.252	0.100
31.800	14.568	0.100
31.900	1.369	0.100
32.000	6.607	0.100
32.100	-13.131	0.100
32.200	10.687	0.100
32.300	2.090	0.100
32.400	13.246	0.100
32.500	11.890	0.100
32.600	-10.056	0.100
32.700	15.144	0.100
32.800	9.279	0.100
32.900	8.755	0.100
33.000	16.509	0.100
33.100	-5.715	0.100
33.200	37.101	0.100
33.300	17.880	0.100
33.400	21.699	0.100
33.500	-2.614	0.100
33.600	20.031	0.100
33.700	12.527	0.100
33.800	12.887	0.100
33.900	-0.642	0.100
34.000	10.529	0.100
34.100	19.103	0.100
34.200	-4.527	0.100
34.300	31.220	0.100
34.400	28.348	0.100
34.500	9.896	0.100
34.600	22.941	0.100
34.700	9.922	0.100
34.800	10.968	0.100
34.900	14.891	0.100
35.000	28.144	0.100
35.100	14.524	0.100
35.200	28.905	0.100
35.300	28.880	0.100
35.400	27.506	0.100
35.500	15.257	0.100
35.600	22.943	0.100
35.700	14.950	0.100
35.800	32.816	0.100
35.900	27.302	0.100
36.000	46.102	0.100
36.100	40.388	0.100
36.200	26.554	0.100
36.300	49.413	0.100
36.400	28.545	0.100
36.500	37.045	0.100
36.600	39.335	0.100
36.700	24.431	0.100
36.800	41.959	0.100
36.900	43.058	0.100
37.000	31.352	0.100
37.100	33.260	0.100
37.200	35.551	0.100
37.300	33.941	0.100
37.400	42.864	0.100
37.500	53.806	0.100
37.600	41.081	0.100
37.700	47.752	0.100
37.800	23.191	0.100
37.900	35.518	0.100
38.000	46.617	0.100
38.100	36.209	0.100
38.200	58.922	0.100
38.300	72.261	0.100
38.400	31.991	0.100
38.500	59.142	0.100
38.600	50.936	0.100
38.700	57.227	0.100
38.800	57.063	0.100
38.900	44.124	0.100
39.000	52.286	0.100
39.100	54.734	0.100
39.200	43.876	0.100
39.300	65.449	0.100
39.400	48.068	0.100
39.500	54.080	0.100
39.600	26.755	0.100
39.700	70.082	0.100
39.800	59.229	0.100
39.900	45.868	0.100
40.000	37.514	0.100
40.100	45.754	0.100
40.200	60.591	0.100
40.300	53.377	0.100
40.400	53.544	0.100
40.500	68.767	0.100
40.600	73.860	0.100
40.700	54.572	0.100
40.800	46.576	0.100
40.900	70.554	0.100
41.000	53.548	0.100
41.100	67.270	0.100
41.200	48.646	0.100
41.300	44.842	0.100
41.400	69.624	0.100
41.500	63.714	0.100
41.600	50.598	0.100
41.700	53.115	0.100
41.800	63.132	0.100
41.900	44.194	0.100
42.000	66.397	0.100
42.100	30.922	0.100
42.200	60.936	0.100
42.300	59.129	0.100
42.400	55.295	0.100
42.500	35.539	0.100
42.600	68.825	0.100
42.700	65.650	0.100
42.800	62.045	0.100
42.900	37.349	0.100
43.000	44.402	0.100
43.100	33.612	0.100
43.200	63.385	0.100
43.300	48.087	0.100
43.400	40.507	0.100
43.500	35.531	0.100
43.600	52.581	0.100
43.700	40.223	0.100
43.800	49.126	0.100
43.900	31.206	0.100
44.000	63.279	0.100
44.100	54.508	0.100
44.200	37.770	0.100
44.300	55.731	0.100
44.400	43.736	0.100
44.500	41.525	0.100
44.600	37.550	0.100
44.700	51.483	0.100
44.800	56.378	0.100
44.900	25.978	0.100
45.000	44.796	0.100
45.100	51.162	0.100
45.200	38.459	0.100
45.300	36.477	0.100
45.400	52.071	0.100
45.500	38.948	0.100
45.600	38.199	0.100
45.700	46.830	0.100
45.800	51.420	0.100
45.900	38.700	0.100
46.000	32.338	0.100
46.100	28.395	0.100
46.200	23.584	0.100
46.300	51.682	0.100
46.400	13.094	0.100
46.500	50.001	0.100
46.600	28.332	0.100
46.700	55.821	0.100
46.800	34.236	0.100
46.900	12.661	0.100
47.000	25.976	0.100
47.100	14.100	0.100
47.200	39.623	0.100
47.300	36.379	0.100
47.400	46.877	0.100
47.500	18.533	0.100
47.600	44.434	0.100
47.700	52.553	0.100
47.800	22.732	0.100
47.900	26.072	0.100
48.000	24.226	0.100
48.100	47.271	0.100
48.200	28.129	0.100
48.300	15.231	0.100
48.400	31.977	0.100
48.500	54.422	0.100
48.600	23.966	0.100
48.700	25.092	0.100
48.800	47.533	0.100
48.900	19.849	0.100
49.000	14.507	0.100
49.100	10.698	0.100
49.200	48.689	0.100
49.300	15.943	0.100
49.400	32.161	0.100
49.500	43.998	0.100
49.600	12.561	0.100
49.700	31.389	0.100
49.800	26.540	0.100
49.900	23.539	0.100
50.000	41.098	0.100
50.100	34.124	0.100
50.200	14.966	0.100
50.300	26.018	0.100
50.400	16.886	0.100
50.500	39.702	0.100
50.600	17.068	0.100
50.700	38.841	0.100
50.800	22.893	0.100
50.900	12.876	0.100
51.000	27.584	0.100
51.100	37.740	0.100
51.200	4.917	0.100
51.300	27.562	0.100
51.400	24.743	0.100
51.500	17.451	0.100
51.600	36.286	0.100
51.700	22.419	0.100
51.800	46.230	0.100
51.900	31.457	0.100
52.000	17.519	0.100
52.100	22.976	0.100
52.200	34.477	0.100
52.300	20.250	0.100
52.400	18.034	0.100
52.500	21.124	0.100
52.600	21.177	0.100
52.700	38.226	0.100
52.800	26.255	0.100
52.900	24.759	0.100
53.000	16.387	0.100
53.100	27.798	0.100
53.200	22.409	0.100
53.300	15.203	0.100
53.400	27.613	0.100
53.500	8.320	0.100
53.600	19.094	0.100
53.700	34.178	0.100
53.800	17.583	0.100
53.900	26.799	0.100
54.000	27.394	0.100
54.100	18.414	0.100
54.200	28.796	0.100
54.300	11.059	0.100
54.400	29.260	0.100
54.500	-2.648	0.100
54.600	19.072	0.100
54.700	38.706	0.100
54.800	12.074	0.100
54.900	13.616	0.100
55.000	18.638	0.100
55.100	18.251	0.100
55.200	37.395	0.100
55.300	20.562	0.100
55.400	7.912	0.100
55.500	20.298	0.100
55.600	43.472	0.100
55.700	25.774	0.100
55.800	13.601	0.100
55.900	14.854	0.100
56.000	25.230	0.100
56.100	19.103	0.100
56.200	13.970	0.100
56.300	26.360	0.100
56.400	3.844	0.100
56.500	29.387	0.100
56.600	19.320	0.100
56.700	12.340	0.100
56.800	35.284	0.100
56.900	30.960	0.100
57.000	31.907	0.100
57.100	34.482	0.100
57.200	14.701	0.100
57.300	24.171	0.100
57.400	13.718	0.100
57.500	15.699	0.100
57.600	22.607	0.100
57.700	10.220	0.100
57.800	21.710	0.100
57.900	30.451	0.100
58.000	16.839	0.100
58.100	16.957	0.100
58.200	31.733	0.100
58.300	23.724	0.100
58.400	20.654	0.100
58.500	34.442	0.100
58.600	11.636	0.100
58.700	-1.680	0.100
58.800	17.949	0.100
58.900	24.733	0.100
59.000	23.639	0.100
59.100	20.470	0.100
59.200	15.845	0.100
59.300	11.949	0.100
59.400	8.548	0.100
59.500	19.871	0.100
59.600	43.394	0.100
59.700	15.487	0.100
59.800	35.012	0.100
59.900	11.129	0.100
60.000	29.898	0.100
60.100	35.445	0.100
60.200	13.542	0.100
60.300	16.538	0.100
60.400	16.629	0.100
60.500	13.122	0.100
60.600	13.279	0.100
60.700	38.377	0.100
60.800	29.351	0.100
60.900	9.507	0.100
61.000	24.643	0.100
61.100	11.828	0.100
61.200	23.060	0.100
61.300	29.048	0.100
61.400	15.630	0.100
61.500	21.053	0.100
61.600	24.716	0.100
61.700	27.763	0.100
61.800	15.144	0.100
61.900	29.390	0.100
62.000	13.220	0.100
62.100	19.151	0.100
62.200	37.700	0.100
62.300	45.266	0.100
62.400	14.729	0.100
62.500	5.575	0.100
62.600	15.997	0.100
62.700	22.780	0.100
62.800	12.316	0.100
62.900	40.570	0.100
63.000	22.972	0.100
63.100	13.773	0.100
63.200	27.569	0.100
63.300	19.382	0.100
63.400	17.575	0.100
63.500	28.744	0.100
63.600	33.760	0.100
63.700	26.004	0.100
63.800	42.157	0.100
63.900	15.747	0.100
64.000	13.354	0.100
64.100	7.941	0.100
64.200	35.117	0.100
64.300	31.864	0.100
64.400	35.160	0.100
64.500	10.199	0.100
64.600	22.021	0.100
64.700	12.926	0.100
64.800	9.770	0.100
64.900	23.132	0.100
65.000	41.093	0.100
65.100	24.071	0.100
65.200	24.837	0.100
65.300	35.278	0.100
65.400	23.315	0.100
65.500	-1.625	0.100
65.600	7.899	0.100
65.700	29.672	0.100
65.800	52.291	0.100
65.900	29.715	0.100
66.000	23.035	0.100
66.100	2.995	0.100
66.200	40.301	0.100
66.300	32.568	0.100
66.400	24.973	0.100
66.500	10.753	0.100
66.600	20.866	0.100
66.700	14.373	0.100
66.800	29.532	0.100
66.900	43.034	0.100
67.000	20.012	0.100
67.100	28.410	0.100
67.200	36.532	0.100
67.300	23.957	0.100
67.400	28.925	0.100
67.500	38.086	0.100
67.600	36.066	0.100
67.700	19.796	0.100
67.800	3.433	0.100
67.900	43.157	0.100
68.000	27.338	0.100
68.100	28.442	0.100
68.200	30.134	0.100
68.300	38.698	0.100
68.400	24.257	0.100
68.500	28.598	0.100
68.600	39.199	0.100
68.700	33.098	0.100
68.800	13.398	0.100
68.900	36.682	0.100
69.000	20.466	0.100
69.100	23.600	0.100
69.200	19.902	0.100
69.300	18.842	0.100
69.400	30.905	0.100
69.500	25.059	0.100
69.600	10.490	0.100
69.700	43.600	0.100
69.800	32.712	0.100
69.900	24.785	0.100
70.000	42.939	0.100
70.100	24.710	0.100
70.200	10.732	0.100
70.300	22.334	0.100
70.400	16.383	0.100
70.500	26.152	0.100
70.600	45.118	0.100
70.700	23.987	0.100
70.800	31.391	0.100
70.900	12.348	0.100
71.000	21.870	0.100
71.100	13.064	0.100
71.200	21.086	0.100
71.300	20.120	0.100
71.400	19.596	0.100
71.500	28.511	0.100
71.600	0.716	0.100
71.700	14.444	0.100
71.800	30.972	0.100
71.900	11.771	0.100
72.000	27.016	0.100
72.100	36.836	0.100
72.200	-11.536	0.100
72.300	45.695	0.100
72.400	16.982	0.100
72.500	25.214	0.100
72.600	31.432	0.100
72.700	45.529	0.100
72.800	34.783	0.100
72.900	35.618	0.100
73.000	24.665	0.100
73.100	17.870	0.100
73.200	35.267	0.100
73.300	12.239	0.100
73.400	30.985	0.100
73.500	32.139	0.100
73.600	29.194	0.100
73.700	24.342	0.100
73.800	24.623	0.100
73.900	38.151	0.100
74.000	13.889	0.100
74.100	31.811	0.100
74.200	23.550	0.100
74.300	14.644	0.100
74.400	33.264	0.100
74.500	7.131	0.100
74.600	27.827	0.100
74.700	29.292	0.100
74.800	34.760	0.100
74.900	14.745	0.100
75.000	17.483	0.100
75.100	22.452	0.100
75.200	34.118	0.100
75.300	25.355	0.100
75.400	19.438	0.100
75.500	30.485	0.100
75.600	26.048	0.100
75.700	31.419	0.100
75.800	19.732	0.100
75.900	35.133	0.100
76.000	27.361	0.100
76.100	22.688	0.100
76.200	32.616	0.100
76.300	21.386	0.100
76.400	46.032	0.100
76.500	37.311	0.100
76.600	25.868	0.100
76.700	12.910	0.100
76.800	20.817	0.100
76.900	46.689	0.100
77.000	33.205	0.100
77.100	32.643	0.100
77.200	31.356	0.100
77.300	16.070	0.100
77.400	23.759	0.100
77.500	30.897	0.100
77.600	32.438	0.100
77.700	17.910	0.100
77.800	23.692	0.100
77.900	21.504	0.100
78.000	32.672	0.100
78.100	23.107	0.100
78.200	32.600	0.100
78.300	36.658	0.100
78.400	34.399	0.100
78.500	24.447	0.100
78.600	20.390	0.100
78.700	21.173	0.100
78.800	29.384	0.100
78.900	29.276	0.100
79.000	28.108	0.100
79.100	24.779	0.100
79.200	30.822	0.100
79.300	28.209	0.100
79.400	20.029	0.100
79.500	36.001	0.100
79.600	22.592	0.100
79.700	35.559	0.100
79.800	11.905	0.100
79.900	14.712	0.100
80.000	28.049	0.100
80.100	32.031	0.100
80.200	30.519	0.100
80.300	26.648	0.100
80.400	35.133	0.100
80.500	26.932	0.100
80.600	38.311	0.100
80.700	17.468	0.100
80.800	36.435	0.100
80.900	23.460	0.100
81.000	18.305	0.100
81.100	29.510	0.100
81.200	20.739	0.100
81.300	46.084	0.100
81.400	22.605	0.100
81.500	5.298	0.100
81.600	23.235	0.100
81.700	21.326	0.100
81.800	35.866	0.100
81.900	41.213	0.100
82.000	34.411	0.100
82.100	52.130	0.100
82.200	41.597	0.100
82.300	35.052	0.100
82.400	21.513	0.100
82.500	18.779	0.100
82.600	21.106	0.100
82.700	36.235	0.100
82.800	12.563	0.100
82.900	31.330	0.100
83.000	31.822	0.100
83.100	14.835	0.100
83.200	25.233	0.100
83.300	46.417	0.100
83.400	5.545	0.100
83.500	43.871	0.100
83.600	13.528	0.100
83.700	50.887	0.100
83.800	12.168	0.100
83.900	28.270	0.100
84.000	51.788	0.100
84.100	23.134	0.100
84.200	33.177	0.100
84.300	23.136	0.100
84.400	28.778	0.100
84.500	33.009	0.100
84.600	44.604	0.100
84.700	28.923	0.100
84.800	23.769	0.100
84.900	31.697	0.100
85.000	30.268	0.100
85.100	18.958	0.100
85.200	15.104	0.100
85.300	9.466	0.100
85.400	37.537	0.100
85.500	22.037	0.100
85.600	42.263	0.100
85.700	24.552	0.100
85.800	8.510	0.100
85.900	22.303	0.100
86.000	21.054	0.100
86.100	40.942	0.100
86.200	34.554	0.100
86.300	29.658	0.100
86.400	36.861	0.100
86.500	21.904	0.100
86.600	16.837	0.100
86.700	37.056	0.100
86.800	29.645	0.100
86.900	32.785	0.100
87.000	40.826	0.100
87.100	17.120	0.100
87.200	49.276	0.100
87.300	29.047	0.100
87.400	24.482	0.100
87.500	35.334	0.100
87.600	35.139	0.100
87.700	23.086	0.100
87.800	22.937	0.100
87.900	24.946	0.100
88.000	31.627	0.100
88.100	30.104	0.100
88.200	29.935	0.100
88.300	22.860	0.100
88.400	12.988	0.100
88.500	17.239	0.100
88.600	34.702	0.100
88.700	33.235	0.100
88.800	51.806	0.100
88.900	35.039	0.100
89.000	26.091	0.100
89.100	35.658	0.100
89.200	18.518	0.100
89.300	32.951	0.100
89.400	31.159	0.100
89.500	24.056	0.100
89.600	27.854	0.100
89.700	27.417	0.100
89.800	17.253	0.100
89.900	26.913	0.100
90.000	26.480	0.100
90.100	22.597	0.100
90.200	22.769	0.100
90.300	22.265	0.100
90.400	14.886	0.100
90.500	13.128	0.100
90.600	5.147	0.100
90.700	13.124	0.100
90.800	12.013	0.100
90.900	10.522	0.100
91.000	-4.058	0.100
91.100	4.106	0.100
91.200	10.520	0.100
91.300	10.757	0.100
91.400	-17.194	0.100
91.500	19.880	0.100
91.600	-6.333	0.100
91.700	9.113	0.100
91.800	-9.910	0.100
91.900	-6.967	0.100
92.000	4.613	0.100
92.100	-20.711	0.100
92.200	-10.660	0.100
92.300	-15.973	0.100
92.400	-13.726	0.100
92.500	5.852	0.100
92.600	-15.619	0.100
92.700	-10.058	0.100
92.800	-9.079	0.100
92.900	-25.035	0.100
93.000	-18.317	0.100
93.100	-2.730	0.100
93.200	-7.361	0.100
93.300	-27.658	0.100
93.400	-14.390	0.100
93.500	-1.441	0.100
93.600	-35.817	0.100
93.700	-16.033	0.100
93.800	-12.341	0.100
93.900	-23.359	0.100
94.000	-54.256	0.100
94.100	-15.456	0.100
94.200	-13.483	0.100
94.300	-47.527	0.100
94.400	-14.796	0.100
94.500	-24.749	0.100
94.600	-36.649	0.100
94.700	-31.729	0.100
94.800	-20.378	0.100
94.900	-13.810	0.100
