time /s	I /nA	E /V
0.100	-8.848	0.100
0.200	-11.129	0.099
0.300	-28.195	0.099
0.400	-8.784	0.100
0.500	-11.329	0.099
0.600	-7.046	0.099
0.700	1.239	0.099
0.800	-13.868	0.100
0.900	-5.290	0.100
1.000	1.337	0.100
1.100	-45.310	0.099
1.200	-12.905	0.099
1.300	-18.154	0.099
1.400	-2.670	0.099
1.500	-4.660	0.100
1.600	-23.672	0.099
1.700	3.718	0.099
1.800	4.542	0.099
1.900	-15.006	0.099
2.000	-10.133	0.100
2.100	-16.024	0.099
2.200	-18.586	0.099
2.300	6.378	0.100
2.400	-22.202	0.100
2.500	4.552	0.100
2.600	-5.535	0.100
2.700	-1.571	0.099
2.800	-12.082	0.100
2.900	-15.899	0.099
3.000	-22.591	0.099
3.100	-7.503	0.099
3.200	-15.208	0.099
3.300	-23.326	0.099
3.400	-17.255	0.099
3.500	0.634	0.100
3.600	4.000	0.100
3.700	-14.533	0.099
3.800	-6.488	0.100
3.900	-12.492	0.099
4.000	-2.183	0.099
4.100	-17.497	0.100
4.200	-3.378	0.099
4.300	-15.995	0.100
4.400	-1.040	0.100
4.500	-16.478	0.099
4.600	-5.495	0.099
4.700	-3.837	0.099
4.800	-1.997	0.100
4.900	-15.020	0.100
5.000	-7.876	0.100
5.100	-7.829	0.100
5.200	-16.516	0.099
5.300	7.946	0.099
5.400	-17.390	0.100
5.500	-7.190	0.100
5.600	-13.740	0.100
5.700	0.643	0.100
5.800	4.929	0.099
5.900	-29.407	0.100
6.000	-16.970	0.099
6.100	-6.589	0.100
6.200	-6.720	0.100
6.300	-11.064	0.100
6.400	-25.989	0.099
6.500	-2.816	0.099
6.600	-8.472	0.100
6.700	5.569	0.100
6.800	-26.022	0.099
6.900	-24.951	0.100
7.000	4.169	0.100
7.100	5.018	0.100
7.200	-9.427	0.100
7.300	-3.513	0.100
7.400	-9.104	0.100
7.500	-1.798	0.100
7.600	-16.053	0.100
7.700	6.506	0.100
7.800	-10.516	0.099
7.900	4.924	0.100
8.000	-7.026	0.100
8.100	-13.421	0.099
8.200	-17.100	0.099
8.300	-6.044	0.100
8.400	-28.902	0.099
8.500	10.005	0.099
8.600	-4.766	0.100
8.700	-19.132	0.100
8.800	-7.290	0.099
8.900	-2.141	0.099
9.000	-13.373	0.099
9.100	-5.941	0.100
9.200	-10.063	0.100
9.300	19.582	0.099
9.400	4.694	0.099
9.500	-14.522	0.100
9.600	-4.872	0.099
9.700	-8.700	0.100
9.800	-10.066	0.100
9.900	-19.246	0.100
10.000	8.819	0.100
10.100	-5.249	0.099
10.200	-1.824	0.099
10.300	-10.827	0.100
10.400	-21.006	0.100
10.500	5.552	0.100
10.600	-13.302	0.100
10.700	-9.680	0.099
10.800	-23.570	0.099
10.900	-13.732	0.099
11.000	-11.379	0.100
11.100	-11.014	0.100
11.200	-13.144	0.099
11.300	-5.824	0.099
11.400	-4.548	0.100
11.500	2.376	0.100
11.600	-23.441	0.100
11.700	-7.210	0.100
11.800	-16.071	0.099
11.900	-0.969	0.100
12.000	-6.321	0.100
12.100	-14.246	0.100
12.200	-13.371	0.099
12.300	8.351	0.100
12.400	-4.053	0.100
12.500	-11.622	0.100
12.600	-12.917	0.100
12.700	-8.218	0.100
12.800	-21.173	0.100
12.900	4.262	0.100
13.000	-2.235	0.099
13.100	-14.067	0.100
13.200	-3.334	0.100
13.300	-16.245	0.100
13.400	-9.017	0.100
13.500	-7.581	0.100
13.600	-15.521	0.099
13.700	-21.155	0.100
13.800	-6.299	0.100
13.900	7.187	0.100
14.000	-9.296	0.099
14.100	-8.647	0.099
14.200	-17.157	0.100
14.300	4.309	0.100
14.400	-17.205	0.100
14.500	-6.276	0.100
14.600	-8.289	0.100
14.700	-9.641	0.099
14.800	-4.974	0.100
14.900	-2.437	0.099
15.000	-5.219	0.100
15.100	-13.658	0.100
15.200	-10.557	0.100
15.300	-15.862	0.100
15.400	-17.828	0.099
15.500	-2.453	0.100
15.600	14.571	0.100
15.700	5.499	0.100
15.800	-23.392	0.100
15.900	-6.436	0.100
16.000	-10.284	0.099
16.100	-14.202	0.100
16.200	-4.892	0.100
16.300	1.353	0.100
16.400	-7.569	0.100
16.500	-6.543	0.099
16.600	-6.169	0.100
16.700	-14.439	0.099
16.800	6.105	0.099
16.900	-1.223	0.100
17.000	-7.949	0.100
17.100	-14.973	0.099
17.200	1.668	0.100
17.300	-7.311	0.100
17.400	-16.373	0.100
17.500	-2.968	0.099
17.600	-14.025	0.100
17.700	2.297	0.100
17.800	10.200	0.099
17.900	-24.296	0.100
18.000	-19.086	0.100
18.100	-11.390	0.100
18.200	-7.337	0.100
18.300	4.738	0.099
18.400	5.014	0.100
18.500	-5.685	0.100
18.600	-3.034	0.099
18.700	-20.243	0.100
18.800	-19.129	0.100
18.900	-10.301	0.099
19.000	-7.379	0.100
19.100	-9.513	0.100
19.200	-1.244	0.100
19.300	-19.946	0.099
19.400	-16.111	0.100
19.500	1.420	0.100
19.600	-4.994	0.099
19.700	-6.949	0.100
19.800	-3.899	0.100
19.900	-18.278	0.100
20.000	-18.622	0.100
20.100	-1.524	0.100
20.200	-7.127	0.100
20.300	0.569	0.100
20.400	-11.658	0.100
20.500	1.863	0.100
20.600	-8.035	0.100
20.700	-13.104	0.100
20.800	-4.834	0.100
20.900	1.479	0.099
21.000	-6.990	0.100
21.100	-2.031	0.099
21.200	-14.899	0.100
21.300	-10.493	0.100
21.400	-8.478	0.099
21.500	-2.965	0.100
21.600	-15.061	0.100
21.700	-9.443	0.100
21.800	-3.131	0.099
21.900	-5.446	0.100
22.000	-20.019	0.100
22.100	-3.412	0.100
22.200	-13.283	0.100
22.300	-14.123	0.100
22.400	6.407	0.100
22.500	-1.162	0.100
22.600	-8.114	0.100
22.700	-4.891	0.100
22.800	-11.626	0.100
22.900	-14.973	0.100
23.000	-7.646	0.100
23.100	1.385	0.100
23.200	-10.453	0.099
23.300	1.456	0.100
23.400	-3.021	0.100
23.500	-19.685	0.100
23.600	-8.744	0.099
23.700	-14.230	0.099
23.800	1.922	0.100
23.900	-8.449	0.100
24.000	12.598	0.100
24.100	-10.179	0.099
24.200	-14.573	0.100
24.300	-4.975	0.100
24.400	2.104	0.100
24.500	-17.962	0.100
24.600	-14.022	0.100
24.700	-2.972	0.099
24.800	-2.694	0.099
24.900	-7.110	0.099
25.000	-11.948	0.099
25.100	-20.986	0.099
25.200	6.665	0.099
25.300	-3.425	0.100
25.400	-10.424	0.099
25.500	-3.655	0.100
25.600	-2.182	0.099
25.700	-14.039	0.099
25.800	-17.476	0.099
25.900	7.430	0.100
26.000	-36.603	0.100
26.100	-0.356	0.099
26.200	-1.747	0.099
26.300	-11.666	0.099
26.400	0.074	0.099
26.500	10.010	0.100
26.600	-6.393	0.099
26.700	-1.861	0.099
26.800	-11.381	0.099
26.900	-7.607	0.099
27.000	-16.129	0.099
27.100	-17.762	0.099
27.200	-1.615	0.100
27.300	-3.213	0.099
27.400	-0.652	0.099
27.500	-5.428	0.100
27.600	-8.883	0.100
27.700	-14.621	0.099
27.800	-8.521	0.100
27.900	2.172	0.099
28.000	-18.430	0.099
28.100	-11.163	0.100
28.200	-4.556	0.100
28.300	-2.460	0.099
28.400	-18.153	0.099
28.500	0.056	0.099
28.600	-1.071	0.099
28.700	-0.746	0.099
28.800	3.681	0.100
28.900	-17.428	0.099
29.000	-14.114	0.099
29.100	-18.472	0.099
29.200	3.835	0.099
29.300	-5.592	0.099
29.400	-14.079	0.099
29.500	0.639	0.099
29.600	3.433	0.099
29.700	12.723	0.100
29.800	-11.821	0.099
29.900	-3.628	0.099
30.000	-0.587	0.099
30.100	-12.744	0.099
30.200	-4.040	0.100
30.300	-4.017	0.099
30.400	-14.116	0.099
30.500	2.888	0.099
30.600	-5.518	0.099
30.700	-5.285	0.099
30.800	4.416	0.100
30.900	-15.233	0.100
31.000	-11.132	0.099
31.100	-18.606	0.099
31.200	-6.945	0.099
31.300	0.226	0.099
31.400	12.677	0.099
31.500	2.669	0.099
31.600	3.999	0.100
31.700	2.737	0.099
31.800	3.757	0.099
31.900	-22.582	0.099
32.000	-6.254	0.099
32.100	14.201	0.099
32.200	12.208	0.099
32.300	2.699	0.099
32.400	7.131	0.099
32.500	-2.261	0.100
32.600	4.214	0.100
32.700	16.224	0.099
32.800	3.034	0.099
32.900	7.348	0.099
33.000	17.379	0.099
33.100	2.991	0.099
33.200	-0.993	0.100
33.300	16.633	0.099
33.400	3.937	0.099
33.500	6.132	0.099
33.600	9.533	0.099
33.700	3.588	0.099
33.800	-4.777	0.099
33.900	3.713	0.099
34.000	8.322	0.100
34.100	-7.332	0.099
34.200	-4.110	0.099
34.300	7.800	0.099
34.400	6.573	0.099
34.500	5.335	0.099
34.600	11.890	0.100
34.700	-7.187	0.099
34.800	9.745	0.099
34.900	2.141	0.099
35.000	22.570	0.099
35.100	12.535	0.099
35.200	5.992	0.099
35.300	0.691	0.099
35.400	14.646	0.099
35.500	2.283	0.099
35.600	12.158	0.099
35.700	20.647	0.099
35.800	13.691	0.099
35.900	17.530	0.099
36.000	8.960	0.099
36.100	1.676	0.099
36.200	8.289	0.099
36.300	7.487	0.099
36.400	22.989	0.099
36.500	27.030	0.099
36.600	-0.147	0.099
36.700	16.899	0.100
36.800	17.615	0.100
36.900	19.240	0.100
37.000	5.547	0.099
37.100	15.205	0.099
37.200	0.523	0.099
37.300	20.861	0.099
37.400	21.871	0.100
37.500	14.191	0.099
37.600	10.607	0.099
37.700	33.192	0.099
37.800	19.993	0.099
37.900	2.282	0.100
38.000	21.993	0.099
38.100	16.238	0.099
38.200	25.932	0.099
38.300	14.775	0.099
38.400	24.298	0.099
38.500	17.928	0.099
38.600	22.035	0.099
38.700	20.309	0.099
38.800	18.315	0.099
38.900	40.145	0.099
39.000	34.511	0.099
39.100	22.569	0.099
39.200	21.925	0.099
39.300	23.026	0.099
39.400	25.531	0.099
39.500	35.695	0.099
39.600	40.495	0.099
39.700	14.920	0.099
39.800	27.813	0.099
39.900	18.067	0.100
40.000	27.409	0.099
40.100	35.857	0.099
40.200	27.578	0.099
40.300	22.774	0.099
40.400	28.189	0.099
40.500	54.961	0.100
40.600	19.595	0.099
40.700	30.560	0.099
40.800	23.331	0.100
40.900	36.445	0.100
41.000	26.195	0.099
41.100	28.627	0.099
41.200	29.496	0.099
41.300	23.086	0.100
41.400	29.225	0.099
41.500	26.103	0.099
41.600	24.549	0.100
41.700	34.574	0.099
41.800	22.458	0.100
41.900	16.775	0.100
42.000	44.385	0.100
42.100	44.648	0.100
42.200	6.861	0.099
42.300	22.945	0.099
42.400	47.091	0.099
42.500	30.404	0.099
42.600	35.235	0.099
42.700	34.049	0.099
42.800	30.858	0.099
42.900	28.996	0.099
43.000	39.006	0.099
43.100	35.997	0.100
43.200	38.205	0.099
43.300	33.235	0.099
43.400	26.528	0.099
43.500	38.411	0.099
43.600	36.320	0.099
43.700	34.514	0.099
43.800	20.310	0.099
43.900	40.002	0.099
44.000	33.100	0.100
44.100	22.884	0.099
44.200	26.851	0.099
44.300	31.811	0.099
44.400	24.446	0.099
44.500	42.351	0.099
44.600	14.757	0.099
44.700	41.984	0.099
44.800	32.858	0.099
44.900	34.856	0.099
45.000	35.089	0.099
45.100	28.902	0.099
45.200	27.689	0.100
45.300	8.555	0.100
45.400	37.204	0.100
45.500	39.937	0.100
45.600	11.459	0.100
45.700	12.852	0.100
45.800	30.755	0.100
45.900	37.532	0.100
46.000	22.879	0.100
46.100	24.569	0.099
46.200	33.566	0.099
46.300	42.742	0.100
46.400	12.112	0.100
46.500	22.704	0.099
46.600	45.865	0.099
46.700	30.932	0.099
46.800	20.604	0.100
46.900	13.959	0.099
47.000	23.263	0.099
47.100	44.925	0.099
47.200	38.136	0.100
47.300	10.134	0.099
47.400	23.184	0.099
47.500	40.369	0.100
47.600	21.287	0.099
47.700	28.708	0.099
47.800	25.928	0.100
47.900	16.269	0.099
48.000	19.306	0.099
48.100	21.311	0.100
48.200	21.522	0.100
48.300	33.260	0.100
48.400	39.817	0.100
48.500	20.976	0.099
48.600	19.135	0.099
48.700	27.633	0.099
48.800	17.167	0.099
48.900	27.002	0.100
49.000	28.816	0.100
49.100	33.819	0.100
49.200	37.716	0.100
49.300	26.154	0.100
49.400	15.238	0.099
49.500	40.716	0.100
49.600	24.789	0.099
49.700	24.614	0.099
49.800	41.325	0.100
49.900	9.358	0.100
50.000	27.747	0.100
50.100	23.720	0.099
50.200	14.731	0.099
50.300	25.445	0.100
50.400	23.814	0.100
50.500	22.338	0.100
50.600	27.849	0.100
50.700	15.546	0.100
50.800	37.180	0.100
50.900	32.854	0.099
51.000	23.177	0.100
51.100	20.972	0.100
51.200	29.813	0.100
51.300	23.533	0.100
51.400	9.922	0.100
51.500	36.024	0.100
51.600	25.334	0.100
51.700	13.821	0.100
51.800	14.749	0.100
51.900	29.164	0.100
52.000	17.314	0.100
52.100	11.475	0.100
52.200	25.058	0.100
52.300	32.195	0.100
52.400	-1.966	0.099
52.500	24.472	0.100
52.600	32.036	0.099
52.700	20.879	0.099
52.800	16.927	0.100
52.900	16.607	0.100
53.000	18.187	0.100
53.100	18.945	0.099
53.200	15.072	0.100
53.300	27.758	0.100
53.400	11.745	0.100
53.500	28.197	0.099
53.600	20.892	0.100
53.700	20.507	0.100
53.800	11.389	0.100
53.900	28.090	0.100
54.000	32.727	0.100
54.100	41.930	0.100
54.200	20.705	0.100
54.300	18.831	0.099
54.400	24.453	0.100
54.500	22.680	0.099
54.600	24.107	0.099
54.700	21.544	0.100
54.800	21.265	0.100
54.900	10.792	0.100
55.000	6.221	0.100
55.100	17.419	0.100
55.200	21.392	0.100
55.300	24.910	0.100
55.400	12.656	0.100
55.500	17.044	0.099
55.600	19.329	0.100
55.700	22.557	0.099
55.800	26.343	0.100
55.900	17.244	0.099
56.000	19.999	0.100
56.100	20.242	0.100
56.200	13.573	0.100
56.300	9.499	0.100
56.400	24.168	0.100
56.500	28.215	0.099
56.600	15.198	0.100
56.700	25.035	0.100
56.800	19.324	0.100
56.900	22.278	0.099
57.000	7.501	0.100
57.100	28.106	0.100
57.200	28.966	0.099
57.300	15.016	0.100
57.400	18.389	0.100
57.500	14.378	0.099
57.600	27.097	0.100
57.700	10.296	0.100
57.800	17.281	0.099
57.900	17.296	0.100
58.000	27.172	0.100
58.100	32.260	0.100
58.200	24.687	0.100
58.300	15.582	0.100
58.400	14.541	0.100
58.500	19.041	0.100
58.600	16.859	0.100
58.700	12.851	0.099
58.800	22.519	0.100
58.900	16.075	0.100
59.000	19.443	0.100
59.100	20.270	0.099
59.200	13.704	0.100
59.300	40.577	0.100
59.400	21.021	0.100
59.500	8.372	0.100
59.600	15.915	0.099
59.700	12.263	0.100
59.800	20.640	0.100
59.900	23.510	0.100
60.000	11.987	0.100
60.100	9.011	0.100
60.200	11.155	0.099
60.300	18.594	0.100
60.400	21.450	0.100
60.500	26.953	0.100
60.600	12.502	0.100
60.700	18.957	0.100
60.800	22.684	0.100
60.900	15.485	0.099
61.000	16.379	0.099
61.100	19.186	0.100
61.200	11.585	0.100
61.300	20.129	0.100
61.400	21.010	0.099
61.500	17.716	0.099
61.600	12.682	0.100
61.700	31.920	0.099
61.800	-2.674	0.100
61.900	17.729	0.100
62.000	25.285	0.100
62.100	15.974	0.100
62.200	18.710	0.099
62.300	24.255	0.100
62.400	17.699	0.100
62.500	17.758	0.100
62.600	29.621	0.099
62.700	15.703	0.100
62.800	23.189	0.100
62.900	28.238	0.099
63.000	19.769	0.100
63.100	-1.057	0.100
63.200	5.492	0.100
63.300	20.645	0.099
63.400	15.246	0.099
63.500	10.492	0.099
63.600	12.596	0.099
63.700	17.722	0.100
63.800	22.424	0.100
63.900	15.431	0.100
64.000	8.237	0.100
64.100	28.740	0.100
64.200	20.436	0.100
64.300	11.833	0.099
64.400	17.563	0.099
64.500	19.248	0.100
64.600	8.045	0.099
64.700	10.752	0.099
64.800	37.111	0.100
64.900	16.478	0.099
65.000	5.425	0.100
65.100	17.028	0.100
65.200	6.136	0.100
65.300	21.439	0.100
65.400	18.704	0.100
65.500	24.802	0.100
65.600	17.248	0.100
65.700	22.931	0.100
65.800	9.361	0.099
65.900	21.114	0.099
66.000	23.783	0.100
66.100	22.129	0.099
66.200	15.092	0.100
66.300	25.101	0.100
66.400	19.637	0.100
66.500	22.715	0.100
66.600	29.482	0.100
66.700	14.120	0.100
66.800	26.773	0.100
66.900	3.819	0.100
67.000	33.791	0.100
67.100	13.697	0.099
67.200	5.204	0.100
67.300	24.055	0.099
67.400	8.766	0.100
67.500	8.466	0.100
67.600	22.305	0.100
67.700	37.307	0.100
67.800	21.435	0.100
67.900	21.228	0.099
68.000	13.989	0.100
68.100	20.816	0.100
68.200	14.372	0.100
68.300	24.100	0.100
68.400	29.142	0.099
68.500	5.474	0.099
68.600	36.949	0.100
68.700	13.977	0.100
68.800	4.147	0.100
68.900	17.548	0.100
69.000	9.182	0.099
69.100	26.008	0.100
69.200	24.307	0.099
69.300	15.208	0.099
69.400	33.668	0.100
69.500	20.061	0.099
69.600	15.453	0.099
69.700	19.256	0.099
69.800	11.819	0.099
69.900	10.318	0.099
70.000	0.556	0.100
70.100	16.988	0.099
70.200	24.862	0.099
70.300	33.742	0.100
70.400	17.258	0.100
70.500	16.662	0.100
70.600	31.158	0.100
70.700	28.349	0.100
70.800	1.179	0.100
70.900	19.560	0.100
71.000	22.468	0.100
71.100	17.948	0.100
71.200	16.304	0.099
71.300	10.697	0.100
71.400	22.873	0.100
71.500	24.403	0.099
71.600	24.753	0.100
71.700	19.308	0.100
71.800	21.993	0.099
71.900	24.688	0.100
72.000	25.630	0.100
72.100	18.335	0.100
72.200	30.553	0.100
72.300	24.039	0.100
72.400	10.456	0.100
72.500	26.265	0.100
72.600	16.915	0.100
72.700	21.346	0.100
72.800	23.871	0.100
72.900	8.916	0.100
73.000	16.963	0.099
73.100	26.629	0.100
73.200	11.564	0.100
73.300	28.862	0.100
73.400	25.841	0.100
73.500	11.686	0.100
73.600	11.279	0.100
73.700	21.063	0.100
73.800	27.063	0.100
73.900	14.053	0.100
74.000	16.459	0.100
74.100	14.698	0.100
74.200	32.017	0.100
74.300	21.558	0.100
74.400	12.637	0.100
74.500	14.502	0.100
74.600	19.433	0.100
74.700	29.115	0.100
74.800	18.688	0.100
74.900	17.016	0.099
75.000	27.816	0.100
75.100	25.071	0.100
75.200	18.235	0.100
75.300	19.197	0.100
75.400	30.810	0.100
75.500	21.230	0.100
75.600	14.004	0.100
75.700	26.075	0.100
75.800	20.337	0.100
75.900	25.581	0.100
76.000	9.954	0.100
76.100	21.117	0.100
76.200	18.407	0.100
76.300	23.493	0.100
76.400	31.340	0.100
76.500	29.034	0.100
76.600	13.432	0.100
76.700	18.739	0.100
76.800	28.187	0.100
76.900	17.137	0.100
77.000	31.268	0.100
77.100	15.519	0.100
77.200	10.612	0.100
77.300	21.242	0.100
77.400	23.068	0.100
77.500	20.592	0.100
77.600	10.780	0.100
77.700	16.920	0.100
77.800	22.897	0.100
77.900	25.837	0.100
78.000	27.480	0.100
78.100	9.346	0.100
78.200	22.914	0.100
78.300	29.738	0.100
78.400	31.114	0.100
78.500	28.094	0.100
78.600	5.762	0.100
78.700	17.781	0.100
78.800	27.257	0.100
78.900	25.980	0.100
79.000	16.368	0.100
79.100	21.705	0.100
79.200	17.373	0.100
79.300	17.323	0.100
79.400	16.518	0.100
79.500	24.450	0.100
79.600	10.237	0.100
79.700	10.039	0.100
79.800	12.257	0.100
79.900	41.893	0.100
80.000	24.457	0.100
80.100	17.743	0.100
80.200	13.910	0.100
80.300	19.634	0.100
80.400	22.686	0.100
80.500	27.448	0.100
80.600	18.477	0.100
80.700	15.163	0.100
80.800	-0.497	0.100
80.900	32.633	0.100
81.000	29.956	0.100
81.100	18.306	0.100
81.200	16.292	0.100
81.300	19.130	0.100
81.400	29.320	0.100
81.500	17.140	0.100
81.600	19.962	0.100
81.700	21.836	0.100
81.800	10.639	0.100
81.900	15.644	0.100
82.000	21.599	0.100
82.100	28.223	0.100
82.200	5.526	0.100
82.300	15.041	0.100
82.400	15.050	0.100
82.500	5.606	0.100
82.600	9.225	0.100
82.700	32.868	0.100
82.800	9.949	0.100
82.900	9.305	0.100
83.000	-0.172	0.100
83.100	16.723	0.100
83.200	17.335	0.100
83.300	17.060	0.100
83.400	22.236	0.100
83.500	31.929	0.100
83.600	7.475	0.100
83.700	16.796	0.100
83.800	24.375	0.100
83.900	34.090	0.100
84.000	26.308	0.100
84.100	31.734	0.100
84.200	18.420	0.100
84.300	8.969	0.100
84.400	26.551	0.100
84.500	15.975	0.100
84.600	2.036	0.100
84.700	24.364	0.100
84.800	29.770	0.100
84.900	22.308	0.100
85.000	22.755	0.100
85.100	11.811	0.100
85.200	17.237	0.100
85.300	26.255	0.100
85.400	19.563	0.100
85.500	26.030	0.100
85.600	30.608	0.100
85.700	12.371	0.100
85.800	28.596	0.100
85.900	5.076	0.100
86.000	20.152	0.100
86.100	20.830	0.100
86.200	19.326	0.100
86.300	28.517	0.100
86.400	8.014	0.100
86.500	42.066	0.100
86.600	18.029	0.100
86.700	28.624	0.100
86.800	18.337	0.100
86.900	4.533	0.100
87.000	20.024	0.100
87.100	26.601	0.100
87.200	22.222	0.100
87.300	19.695	0.100
87.400	12.222	0.100
87.500	28.351	0.100
87.600	22.055	0.100
87.700	28.145	0.100
87.800	35.481	0.100
87.900	29.885	0.100
88.000	7.526	0.100
88.100	27.304	0.100
88.200	18.002	0.100
88.300	15.993	0.100
88.400	12.067	0.100
88.500	21.481	0.100
88.600	12.066	0.100
88.700	17.364	0.100
88.800	25.331	0.100
88.900	10.046	0.100
89.000	34.212	0.100
89.100	16.326	0.100
89.200	34.513	0.100
89.300	30.606	0.100
89.400	0.107	0.100
89.500	32.367	0.100
89.600	23.931	0.100
89.700	29.048	0.100
89.800	18.928	0.100
89.900	28.402	0.100
90.000	6.762	0.100
90.100	33.533	0.100
90.200	18.227	0.100
90.300	44.135	0.100
90.400	17.203	0.100
90.500	14.772	0.100
90.600	37.065	0.100
90.700	14.011	0.100
90.800	24.751	0.100
90.900	9.360	0.100
91.000	12.288	0.100
91.100	22.025	0.100
91.200	17.271	0.100
91.300	20.866	0.100
91.400	15.414	0.100
91.500	25.702	0.100
91.600	4.402	0.100
91.700	4.281	0.100
91.800	8.010	0.100
91.900	11.772	0.100
92.000	8.129	0.100
92.100	-9.500	0.100
92.200	12.599	0.100
92.300	8.489	0.100
92.400	2.849	0.100
92.500	-6.025	0.100
92.600	10.843	0.100
92.700	13.529	0.100
92.800	-0.077	0.100
92.900	13.396	0.100
93.000	-11.054	0.100
93.100	-20.733	0.100
93.200	-2.168	0.100
93.300	19.956	0.100
93.400	6.649	0.100
93.500	-0.391	0.100
93.600	-4.325	0.100
93.700	-14.209	0.100
93.800	-25.490	0.100
93.900	8.666	0.100
94.000	-3.160	0.100
94.100	-19.435	0.100
94.200	-3.964	0.100
94.300	-2.898	0.100
94.400	-10.624	0.100
94.500	-14.812	0.100
94.600	-17.554	0.100
94.700	-15.556	0.100
94.800	2.501	0.100
94.900	4.511	0.100
95.000	-15.259	0.100
95.100	-7.174	0.100
95.200	-4.225	0.100
95.300	-11.404	0.100
95.400	-8.805	0.100
95.500	-8.217	0.100
