time /s	I /nA	E /V
0.100	6.429	0.100
0.200	-20.423	0.100
0.300	-19.936	0.100
0.400	-6.212	0.100
0.500	10.273	0.100
0.600	-34.653	0.100
0.700	-12.750	0.100
0.800	-17.019	0.100
0.900	-15.318	0.100
1.000	-21.250	0.100
1.100	-7.413	0.100
1.200	-17.709	0.100
1.300	-4.365	0.100
1.400	-15.803	0.100
1.500	-10.894	0.099
1.600	2.939	0.100
1.700	-14.176	0.100
1.800	-7.908	0.100
1.900	-3.879	0.100
2.000	-23.233	0.100
2.100	3.961	0.100
2.200	-12.058	0.100
2.300	-1.900	0.100
2.400	-17.383	0.100
2.500	-11.290	0.100
2.600	-11.298	0.100
2.700	-13.000	0.100
2.800	-10.893	0.100
2.900	-23.109	0.100
3.000	-7.254	0.100
3.100	-17.606	0.100
3.200	-2.299	0.100
3.300	-8.367	0.100
3.400	-4.440	0.100
3.500	-22.572	0.100
3.600	-1.448	0.100
3.700	-23.612	0.100
3.800	-11.426	0.100
3.900	-27.854	0.100
4.000	-7.091	0.100
4.100	-18.056	0.100
4.200	2.692	0.100
4.300	-27.434	0.100
4.400	-18.827	0.100
4.500	-20.564	0.100
4.600	-4.320	0.100
4.700	-18.683	0.100
4.800	-12.941	0.100
4.900	4.219	0.100
5.000	-2.364	0.100
5.100	-17.527	0.100
5.200	-7.571	0.100
5.300	-19.062	0.100
5.400	-0.235	0.100
5.500	-6.017	0.100
5.600	-20.749	0.100
5.700	-13.865	0.100
5.800	-6.448	0.100
5.900	-16.876	0.100
6.000	-10.090	0.100
6.100	-13.031	0.100
6.200	-17.734	0.100
6.300	-10.740	0.100
6.400	-20.688	0.100
6.500	-28.536	0.100
6.600	-24.286	0.100
6.700	-11.933	0.100
6.800	-13.808	0.100
6.900	-10.051	0.100
7.000	-11.221	0.100
7.100	-6.134	0.100
7.200	-14.538	0.100
7.300	-18.630	0.100
7.400	-12.550	0.100
7.500	-13.143	0.100
7.600	-7.117	0.100
7.700	-3.489	0.100
7.800	-9.215	0.100
7.900	-33.557	0.100
8.000	-21.478	0.100
8.100	-13.339	0.100
8.200	-4.903	0.100
8.300	-18.279	0.100
8.400	15.142	0.100
8.500	-6.894	0.100
8.600	-12.234	0.100
8.700	-4.900	0.100
8.800	4.156	0.100
8.900	3.359	0.100
9.000	-31.566	0.100
9.100	-12.328	0.100
9.200	-11.555	0.100
9.300	-17.029	0.100
9.400	0.555	0.100
9.500	2.604	0.100
9.600	6.003	0.100
9.700	-3.193	0.099
9.800	-5.477	0.100
9.900	-22.114	0.100
10.000	-1.646	0.100
10.100	-0.263	0.100
10.200	-1.994	0.100
10.300	-4.390	0.100
10.400	0.051	0.100
10.500	-2.671	0.100
10.600	-21.305	0.100
10.700	-14.699	0.100
10.800	-8.365	0.100
10.900	-18.811	0.100
11.000	-3.744	0.100
11.100	-9.158	0.100
11.200	-7.331	0.100
11.300	-10.711	0.100
11.400	-10.095	0.100
11.500	8.747	0.100
11.600	-21.919	0.100
11.700	-16.571	0.100
11.800	-15.942	0.100
11.900	-4.389	0.100
12.000	-17.551	0.100
12.100	-2.505	0.100
12.200	-0.677	0.100
12.300	-8.794	0.100
12.400	-11.352	0.100
12.500	-7.299	0.100
12.600	-8.505	0.100
12.700	-25.091	0.100
12.800	-13.464	0.100
12.900	11.992	0.100
13.000	-10.801	0.100
13.100	-11.443	0.100
13.200	-10.872	0.100
13.300	-17.839	0.100
13.400	-24.288	0.100
13.500	-3.797	0.100
13.600	-3.263	0.100
13.700	-9.682	0.100
13.800	-16.587	0.100
13.900	-7.418	0.100
14.000	-26.235	0.100
14.100	-19.835	0.100
14.200	-21.363	0.100
14.300	-12.287	0.100
14.400	0.955	0.100
14.500	6.722	0.100
14.600	-14.147	0.100
14.700	-2.285	0.100
14.800	-24.036	0.100
14.900	8.472	0.100
15.000	-19.928	0.100
15.100	-4.894	0.100
15.200	-17.173	0.100
15.300	-12.261	0.100
15.400	-11.952	0.100
15.500	-6.365	0.100
15.600	-13.294	0.100
15.700	-32.359	0.100
15.800	0.278	0.100
15.900	4.495	0.100
16.000	-6.814	0.100
16.100	-11.882	0.100
16.200	-14.318	0.100
16.300	-17.889	0.100
16.400	-6.303	0.100
16.500	4.091	0.100
16.600	-20.575	0.100
16.700	-8.824	0.100
16.800	-31.147	0.100
16.900	-10.824	0.100
17.000	-6.822	0.100
17.100	-5.593	0.100
17.200	-3.783	0.100
17.300	-5.660	0.100
17.400	-25.418	0.100
17.500	-11.715	0.100
17.600	-10.325	0.100
17.700	-11.742	0.100
17.800	-9.612	0.100
17.900	0.872	0.100
18.000	-11.481	0.100
18.100	-22.430	0.100
18.200	-25.681	0.100
18.300	-7.573	0.100
18.400	-5.282	0.100
18.500	-0.997	0.100
18.600	-5.407	0.100
18.700	1.979	0.100
18.800	-12.117	0.100
18.900	-4.836	0.100
19.000	-10.483	0.100
19.100	-9.438	0.100
19.200	16.694	0.100
19.300	6.999	0.100
19.400	-16.529	0.100
19.500	-22.015	0.100
19.600	-12.405	0.100
19.700	-23.089	0.100
19.800	5.917	0.100
19.900	-11.705	0.100
20.000	-5.316	0.100
20.100	-6.835	0.100
20.200	-0.846	0.100
20.300	4.680	0.100
20.400	-21.839	0.100
20.500	-26.498	0.100
20.600	-7.455	0.100
20.700	-8.543	0.100
20.800	-20.479	0.100
20.900	-7.652	0.100
21.000	-11.220	0.100
21.100	-12.103	0.100
21.200	-11.753	0.100
21.300	-7.234	0.100
21.400	-10.909	0.100
21.500	-6.743	0.100
21.600	2.641	0.100
21.700	-11.380	0.100
21.800	-19.775	0.100
21.900	-2.743	0.100
22.000	4.074	0.100
22.100	1.843	0.100
22.200	-4.640	0.100
22.300	-19.717	0.100
22.400	-21.444	0.100
22.500	-6.344	0.100
22.600	-15.690	0.100
22.700	-17.442	0.099
22.800	-5.779	0.100
22.900	-9.369	0.100
23.000	-4.904	0.100
23.100	-4.129	0.100
23.200	-12.831	0.100
23.300	-2.909	0.100
23.400	-3.612	0.100
23.500	-6.268	0.100
23.600	-12.888	0.100
23.700	-16.138	0.100
23.800	-6.484	0.100
23.900	-3.768	0.100
24.000	-6.902	0.100
24.100	-10.695	0.100
24.200	-16.375	0.100
24.300	-14.671	0.100
24.400	-12.660	0.100
24.500	-7.283	0.100
24.600	-8.129	0.099
24.700	-17.753	0.100
24.800	-0.396	0.100
24.900	1.661	0.100
25.000	5.478	0.100
25.100	-1.903	0.100
25.200	-20.087	0.100
25.300	-2.536	0.100
25.400	-5.947	0.100
25.500	-0.890	0.100
25.600	-9.438	0.100
25.700	-11.163	0.100
25.800	-29.030	0.100
25.900	-3.664	0.100
26.000	3.362	0.100
26.100	2.602	0.100
26.200	-8.182	0.100
26.300	-6.905	0.100
26.400	-11.651	0.100
26.500	-2.969	0.100
26.600	-26.634	0.100
26.700	-9.898	0.100
26.800	-6.206	0.100
26.900	-25.262	0.100
27.000	-4.814	0.100
27.100	-40.368	0.100
27.200	-0.192	0.100
27.300	-11.170	0.100
27.400	-8.517	0.100
27.500	-7.362	0.100
27.600	-15.349	0.100
27.700	-0.169	0.100
27.800	-6.762	0.100
27.900	-16.240	0.100
28.000	10.727	0.100
28.100	-13.580	0.100
28.200	4.608	0.099
28.300	-11.756	0.100
28.400	-18.706	0.100
28.500	-13.722	0.100
28.600	3.568	0.100
28.700	-8.127	0.100
28.800	2.666	0.100
28.900	-23.495	0.099
29.000	-2.360	0.100
29.100	-10.877	0.100
29.200	-27.386	0.100
29.300	-2.945	0.099
29.400	-5.335	0.100
29.500	-2.337	0.100
29.600	-10.771	0.100
29.700	-4.989	0.100
29.800	-10.862	0.100
29.900	-14.174	0.100
30.000	-1.681	0.099
30.100	-2.323	0.100
30.200	-18.490	0.100
30.300	-15.384	0.100
30.400	-8.171	0.100
30.500	-7.839	0.099
30.600	-6.752	0.100
30.700	-0.549	0.100
30.800	-19.572	0.100
30.900	-16.209	0.100
31.000	-0.577	0.099
31.100	1.926	0.100
31.200	-9.493	0.099
31.300	-0.637	0.100
31.400	-6.817	0.100
31.500	30.592	0.100
31.600	3.722	0.100
31.700	17.239	0.099
31.800	30.688	0.100
31.900	15.939	0.100
32.000	16.744	0.100
32.100	4.800	0.100
32.200	-3.364	0.100
32.300	-13.651	0.100
32.400	10.306	0.099
32.500	15.482	0.100
32.600	13.303	0.100
32.700	14.106	0.100
32.800	1.454	0.100
32.900	8.759	0.100
33.000	-0.532	0.100
33.100	15.051	0.100
33.200	9.279	0.100
33.300	2.115	0.100
33.400	26.601	0.100
33.500	18.507	0.100
33.600	4.601	0.100
33.700	-2.440	0.100
33.800	8.582	0.100
33.900	3.792	0.100
34.000	10.315	0.100
34.100	3.053	0.100
34.200	8.535	0.100
34.300	32.054	0.100
34.400	9.016	0.100
34.500	3.399	0.100
34.600	1.834	0.100
34.700	9.334	0.100
34.800	12.039	0.100
34.900	7.050	0.100
35.000	24.424	0.100
35.100	-1.836	0.100
35.200	6.122	0.100
35.300	5.467	0.100
35.400	3.683	0.100
35.500	5.415	0.100
35.600	33.018	0.100
35.700	10.670	0.099
35.800	11.702	0.100
35.900	2.383	0.100
36.000	5.440	0.100
36.100	19.905	0.100
36.200	6.040	0.100
36.300	24.469	0.100
36.400	24.559	0.100
36.500	38.242	0.100
36.600	7.335	0.100
36.700	10.535	0.100
36.800	18.375	0.100
36.900	16.716	0.099
37.000	18.370	0.100
37.100	4.821	0.100
37.200	22.908	0.100
37.300	6.274	0.100
37.400	18.512	0.100
37.500	44.992	0.100
37.600	25.129	0.100
37.700	10.471	0.100
37.800	26.115	0.100
37.900	25.556	0.100
38.000	10.533	0.100
38.100	28.646	0.100
38.200	37.565	0.100
38.300	16.579	0.099
38.400	39.301	0.100
38.500	39.209	0.100
38.600	25.684	0.100
38.700	26.161	0.100
38.800	17.725	0.100
38.900	13.758	0.099
39.000	39.564	0.100
39.100	27.949	0.099
39.200	45.253	0.100
39.300	24.200	0.100
39.400	42.898	0.100
39.500	38.451	0.100
39.600	34.560	0.099
39.700	25.006	0.100
39.800	46.801	0.100
39.900	34.066	0.099
40.000	35.774	0.100
40.100	12.656	0.099
40.200	40.892	0.099
40.300	36.766	0.100
40.400	27.871	0.100
40.500	28.673	0.099
40.600	26.514	0.099
40.700	33.840	0.100
40.800	41.309	0.099
40.900	48.833	0.100
41.000	38.690	0.100
41.100	34.238	0.100
41.200	27.057	0.100
41.300	35.845	0.100
41.400	45.113	0.100
41.500	38.851	0.100
41.600	26.587	0.100
41.700	35.443	0.100
41.800	37.864	0.100
41.900	40.016	0.100
42.000	29.542	0.100
42.100	38.081	0.099
42.200	32.453	0.100
42.300	36.896	0.100
42.400	34.219	0.099
42.500	38.168	0.100
42.600	34.489	0.100
42.700	29.885	0.099
42.800	38.313	0.100
42.900	38.993	0.100
43.000	40.888	0.100
43.100	29.220	0.100
43.200	36.288	0.100
43.300	49.828	0.100
43.400	40.214	0.100
43.500	29.198	0.100
43.600	31.038	0.100
43.700	21.323	0.100
43.800	38.914	0.100
43.900	56.091	0.100
44.000	48.365	0.100
44.100	43.105	0.100
44.200	25.636	0.100
44.300	22.977	0.100
44.400	35.729	0.100
44.500	33.781	0.100
44.600	31.361	0.100
44.700	35.494	0.100
44.800	49.428	0.100
44.900	32.316	0.100
45.000	30.497	0.100
45.100	29.795	0.100
45.200	45.008	0.100
45.300	29.688	0.100
45.400	23.466	0.100
45.500	54.258	0.100
45.600	37.418	0.100
45.700	33.134	0.100
45.800	27.926	0.100
45.900	37.592	0.100
46.000	19.491	0.100
46.100	31.119	0.100
46.200	55.266	0.100
46.300	16.819	0.100
46.400	35.825	0.100
46.500	24.541	0.100
46.600	18.769	0.100
46.700	26.466	0.100
46.800	25.330	0.100
46.900	48.001	0.100
47.000	22.909	0.100
47.100	35.345	0.100
47.200	24.817	0.100
47.300	34.192	0.100
47.400	27.426	0.100
47.500	20.556	0.100
47.600	31.450	0.100
47.700	29.462	0.100
47.800	28.996	0.100
47.900	34.686	0.100
48.000	27.695	0.100
48.100	28.764	0.100
48.200	21.538	0.100
48.300	34.255	0.100
48.400	-2.409	0.100
48.500	56.892	0.100
48.600	25.384	0.100
48.700	27.405	0.100
48.800	14.048	0.100
48.900	12.127	0.100
49.000	21.118	0.100
49.100	40.209	0.100
49.200	51.027	0.100
49.300	24.793	0.100
49.400	23.168	0.100
49.500	21.715	0.100
49.600	30.167	0.100
49.700	-5.166	0.100
49.800	36.590	0.100
49.900	26.040	0.100
50.000	22.047	0.100
50.100	16.085	0.099
50.200	24.747	0.100
50.300	14.097	0.100
50.400	36.081	0.100
50.500	32.576	0.100
50.600	22.212	0.100
50.700	22.900	0.100
50.800	18.850	0.100
50.900	36.900	0.100
51.000	34.680	0.100
51.100	31.605	0.100
51.200	25.439	0.100
51.300	10.237	0.100
51.400	31.511	0.100
51.500	23.226	0.100
51.600	23.820	0.099
51.700	15.019	0.100
51.800	27.265	0.100
51.900	20.730	0.100
52.000	27.682	0.100
52.100	18.377	0.100
52.200	-1.853	0.100
52.300	32.697	0.100
52.400	29.889	0.100
52.500	15.560	0.099
52.600	23.920	0.100
52.700	1.616	0.100
52.800	14.796	0.100
52.900	-1.914	0.099
53.000	36.529	0.100
53.100	30.202	0.100
53.200	11.369	0.100
53.300	21.821	0.100
53.400	35.501	0.099
53.500	19.048	0.100
53.600	1.237	0.100
53.700	31.056	0.100
53.800	22.274	0.100
53.900	26.869	0.100
54.000	25.641	0.100
54.100	17.866	0.100
54.200	5.503	0.100
54.300	12.852	0.100
54.400	27.439	0.100
54.500	34.666	0.100
54.600	13.316	0.100
54.700	25.422	0.100
54.800	18.096	0.100
54.900	23.672	0.100
55.000	26.365	0.100
55.100	-3.148	0.100
55.200	29.977	0.099
55.300	16.659	0.100
55.400	32.038	0.100
55.500	20.030	0.100
55.600	18.788	0.099
55.700	25.710	0.100
55.800	17.689	0.100
55.900	16.333	0.100
56.000	14.104	0.100
56.100	5.776	0.100
56.200	22.520	0.099
56.300	11.701	0.099
56.400	26.283	0.100
56.500	22.048	0.100
56.600	31.129	0.100
56.700	36.697	0.100
56.800	3.249	0.100
56.900	10.805	0.100
57.000	15.495	0.100
57.100	17.154	0.099
57.200	23.686	0.100
57.300	28.055	0.100
57.400	19.984	0.100
57.500	32.335	0.100
57.600	11.807	0.100
57.700	1.560	0.100
57.800	-3.797	0.100
57.900	23.161	0.100
58.000	40.245	0.099
58.100	33.835	0.100
58.200	18.250	0.100
58.300	28.325	0.100
58.400	10.401	0.100
58.500	8.486	0.099
58.600	35.477	0.100
58.700	14.947	0.100
58.800	21.415	0.100
58.900	5.684	0.100
59.000	10.916	0.099
59.100	-1.293	0.100
59.200	31.134	0.100
59.300	27.787	0.100
59.400	15.338	0.100
59.500	10.899	0.100
59.600	20.606	0.099
59.700	16.906	0.100
59.800	16.173	0.100
59.900	-2.809	0.100
60.000	29.494	0.100
60.100	7.660	0.100
60.200	2.123	0.100
60.300	14.027	0.100
60.400	21.033	0.100
60.500	18.781	0.100
60.600	29.481	0.099
60.700	9.298	0.100
60.800	6.616	0.100
60.900	24.215	0.100
61.000	14.288	0.100
61.100	25.609	0.100
61.200	20.338	0.100
61.300	26.746	0.100
61.400	7.190	0.100
61.500	16.018	0.100
61.600	22.962	0.100
61.700	19.234	0.100
61.800	8.350	0.100
61.900	10.532	0.100
62.000	14.918	0.100
62.100	8.486	0.100
62.200	6.505	0.100
62.300	11.494	0.100
62.400	8.115	0.100
62.500	28.950	0.100
62.600	17.479	0.100
62.700	13.109	0.100
62.800	14.554	0.099
62.900	2.680	0.100
63.000	4.250	0.099
63.100	24.227	0.100
63.200	21.885	0.100
63.300	13.875	0.100
63.400	4.479	0.100
63.500	12.351	0.100
63.600	31.280	0.100
63.700	21.568	0.100
63.800	26.659	0.100
63.900	13.521	0.100
64.000	15.456	0.100
64.100	22.600	0.100
64.200	15.063	0.100
64.300	19.399	0.100
64.400	20.917	0.100
64.500	13.186	0.100
64.600	11.824	0.100
64.700	25.091	0.100
64.800	6.495	0.099
64.900	21.406	0.100
65.000	32.401	0.100
65.100	-3.722	0.100
65.200	14.333	0.100
65.300	2.063	0.100
65.400	11.180	0.100
65.500	28.095	0.100
65.600	30.296	0.100
65.700	14.703	0.099
65.800	16.231	0.100
65.900	-7.533	0.099
66.000	18.577	0.100
66.100	21.659	0.100
66.200	8.398	0.100
66.300	34.678	0.099
66.400	9.573	0.100
66.500	29.544	0.100
66.600	24.141	0.100
66.700	12.749	0.099
66.800	24.751	0.100
66.900	6.676	0.100
67.000	15.125	0.100
67.100	21.611	0.100
67.200	23.095	0.100
67.300	5.837	0.100
67.400	17.367	0.100
67.500	15.041	0.100
67.600	22.486	0.100
67.700	17.164	0.100
67.800	13.639	0.100
67.900	25.955	0.100
68.000	-12.665	0.099
68.100	12.599	0.100
68.200	35.924	0.100
68.300	29.063	0.099
68.400	4.397	0.100
68.500	17.997	0.100
68.600	34.803	0.100
68.700	20.184	0.099
68.800	26.217	0.100
68.900	31.358	0.100
69.000	12.245	0.100
69.100	15.271	0.100
69.200	-0.162	0.100
69.300	31.584	0.099
69.400	22.239	0.100
69.500	17.038	0.099
69.600	15.861	0.099
69.700	14.327	0.100
69.800	13.796	0.100
69.900	24.460	0.100
70.000	19.711	0.100
70.100	4.354	0.099
70.200	28.792	0.099
70.300	25.245	0.100
70.400	25.768	0.099
70.500	15.991	0.100
70.600	25.061	0.100
70.700	0.855	0.099
70.800	24.815	0.099
70.900	21.372	0.100
71.000	18.840	0.100
71.100	20.787	0.100
71.200	19.839	0.100
71.300	33.952	0.100
71.400	-3.535	0.099
71.500	34.760	0.100
71.600	12.638	0.100
71.700	28.681	0.099
71.800	25.368	0.100
71.900	14.362	0.100
72.000	20.953	0.099
72.100	18.385	0.100
72.200	22.157	0.099
72.300	10.238	0.100
72.400	8.102	0.099
72.500	34.460	0.100
72.600	11.998	0.099
72.700	20.195	0.100
72.800	26.810	0.100
72.900	19.141	0.100
73.000	24.608	0.099
73.100	28.289	0.100
73.200	27.223	0.099
73.300	19.566	0.100
73.400	14.923	0.100
73.500	19.659	0.099
73.600	11.894	0.099
73.700	38.260	0.099
73.800	14.406	0.100
73.900	39.460	0.100
74.000	-0.265	0.099
74.100	20.066	0.100
74.200	8.912	0.099
74.300	11.925	0.100
74.400	8.078	0.100
74.500	44.876	0.099
74.600	28.288	0.099
74.700	23.717	0.100
74.800	17.175	0.100
74.900	6.244	0.099
75.000	21.274	0.099
75.100	11.053	0.099
75.200	13.462	0.099
75.300	17.634	0.099
75.400	29.507	0.100
75.500	24.723	0.100
75.600	15.854	0.099
75.700	30.519	0.100
75.800	27.559	0.099
75.900	30.294	0.100
76.000	22.836	0.099
76.100	17.474	0.100
76.200	4.901	0.100
76.300	31.057	0.100
76.400	18.362	0.100
76.500	10.011	0.100
76.600	35.552	0.100
76.700	32.915	0.100
76.800	21.483	0.100
76.900	14.441	0.099
77.000	-4.427	0.099
77.100	27.114	0.100
77.200	34.407	0.099
77.300	23.436	0.100
77.400	24.856	0.100
77.500	18.595	0.099
77.600	32.179	0.100
77.700	23.522	0.100
77.800	22.027	0.099
77.900	13.188	0.099
78.000	27.262	0.099
78.100	11.327	0.100
78.200	22.846	0.099
78.300	24.920	0.099
78.400	22.205	0.100
78.500	16.727	0.100
78.600	12.867	0.100
78.700	25.045	0.099
78.800	17.009	0.100
78.900	15.723	0.099
79.000	-7.509	0.100
79.100	21.257	0.100
79.200	18.794	0.099
79.300	33.468	0.100
79.400	18.482	0.100
79.500	42.299	0.100
79.600	11.258	0.100
79.700	20.097	0.100
79.800	23.536	0.099
79.900	31.120	0.100
80.000	14.232	0.100
80.100	11.091	0.100
80.200	27.271	0.100
80.300	13.411	0.099
80.400	23.215	0.100
80.500	10.596	0.100
80.600	24.828	0.099
80.700	23.561	0.100
80.800	7.742	0.099
80.900	22.352	0.100
81.000	31.813	0.100
81.100	22.968	0.100
81.200	-0.294	0.100
81.300	31.624	0.099
81.400	24.244	0.100
81.500	11.835	0.100
81.600	23.516	0.100
81.700	21.032	0.100
81.800	26.846	0.100
81.900	16.461	0.100
82.000	17.007	0.100
82.100	34.590	0.100
82.200	26.465	0.100
82.300	8.947	0.100
82.400	14.255	0.100
82.500	19.214	0.100
82.600	17.382	0.100
82.700	14.987	0.100
82.800	29.990	0.100
82.900	16.846	0.100
83.000	19.968	0.099
83.100	20.838	0.099
83.200	11.461	0.100
83.300	21.721	0.100
83.400	24.086	0.100
83.500	33.810	0.100
83.600	17.431	0.100
83.700	21.438	0.100
83.800	26.203	0.100
83.900	23.132	0.100
84.000	14.716	0.100
84.100	27.459	0.100
84.200	40.444	0.100
84.300	21.346	0.099
84.400	17.274	0.099
84.500	22.698	0.100
84.600	18.530	0.100
84.700	23.029	0.100
84.800	14.260	0.099
84.900	34.702	0.100
85.000	31.867	0.100
85.100	23.519	0.100
85.200	29.737	0.100
85.300	17.080	0.100
85.400	20.844	0.100
85.500	31.930	0.100
85.600	29.787	0.100
85.700	28.903	0.099
85.800	26.198	0.100
85.900	11.885	0.100
86.000	22.148	0.099
86.100	19.975	0.100
86.200	11.529	0.100
86.300	24.689	0.099
86.400	18.491	0.100
86.500	22.434	0.100
86.600	25.553	0.100
86.700	22.406	0.100
86.800	10.174	0.100
86.900	27.073	0.100
87.000	15.978	0.099
87.100	39.541	0.100
87.200	31.365	0.100
87.300	18.895	0.100
87.400	29.873	0.100
87.500	35.291	0.100
87.600	2.753	0.100
87.700	13.624	0.100
87.800	40.878	0.100
87.900	34.815	0.100
88.000	27.384	0.100
88.100	23.894	0.100
88.200	24.042	0.100
88.300	32.001	0.100
88.400	32.476	0.100
88.500	22.777	0.100
88.600	22.554	0.100
88.700	21.236	0.100
88.800	-5.827	0.100
88.900	13.984	0.099
89.000	28.342	0.100
89.100	35.671	0.099
89.200	16.305	0.099
89.300	21.486	0.100
89.400	14.049	0.099
89.500	21.442	0.099
89.600	33.911	0.100
89.700	31.806	0.100
89.800	1.772	0.099
89.900	25.722	0.100
90.000	28.734	0.099
90.100	26.428	0.099
90.200	7.148	0.099
90.300	15.232	0.100
90.400	25.407	0.100
90.500	26.743	0.099
90.600	12.689	0.099
90.700	10.418	0.100
90.800	20.346	0.100
90.900	15.730	0.100
91.000	6.903	0.100
91.100	33.239	0.100
91.200	-3.594	0.100
91.300	-3.655	0.100
91.400	20.568	0.100
91.500	4.023	0.100
91.600	7.170	0.100
91.700	-2.452	0.100
91.800	12.987	0.100
91.900	2.657	0.099
92.000	-4.446	0.100
92.100	-2.080	0.100
92.200	-18.157	0.100
92.300	-1.294	0.100
92.400	-4.530	0.100
92.500	-6.354	0.100
92.600	-2.684	0.100
92.700	-14.153	0.099
92.800	-1.054	0.100
92.900	-13.345	0.100
93.000	-8.348	0.100
93.100	-14.239	0.099
93.200	-19.166	0.100
93.300	-13.937	0.100
93.400	-3.953	0.099
93.500	-30.314	0.100
93.600	-1.788	0.100
93.700	-10.073	0.100
93.800	-15.545	0.100
93.900	-10.724	0.100
94.000	-4.693	0.100
94.100	-39.810	0.100
94.200	-6.165	0.100
94.300	-23.052	0.100
94.400	-21.169	0.100
94.500	-12.215	0.099
94.600	-37.506	0.099
94.700	-18.583	0.100
94.800	-14.582	0.100
94.900	-12.460	0.100
95.000	-16.696	0.100
95.100	-32.355	0.100
95.200	-17.184	0.100
