time /s	I /nA	E /V
0.100	-11.274	0.100
0.200	-8.876	0.100
0.300	-20.635	0.100
0.400	-4.636	0.100
0.500	11.951	0.100
0.600	-14.976	0.100
0.700	-4.140	0.100
0.800	-11.553	0.100
0.900	-6.908	0.100
1.000	-6.264	0.100
1.100	-3.745	0.100
1.200	4.390	0.100
1.300	2.001	0.100
1.400	-25.411	0.100
1.500	-6.276	0.100
1.600	-11.092	0.100
1.700	3.637	0.100
1.800	3.686	0.100
1.900	-8.022	0.100
2.000	-3.176	0.100
2.100	-6.781	0.100
2.200	-8.917	0.100
2.300	-21.078	0.100
2.400	-8.625	0.100
2.500	-6.361	0.100
2.600	-7.931	0.100
2.700	-19.810	0.100
2.800	-4.372	0.100
2.900	9.497	0.100
3.000	4.724	0.100
3.100	-12.852	0.100
3.200	8.031	0.100
3.300	-5.367	0.100
3.400	-26.620	0.100
3.500	-6.431	0.100
3.600	3.712	0.100
3.700	0.628	0.100
3.800	-13.409	0.100
3.900	-3.554	0.100
4.000	-0.246	0.100
4.100	-18.231	0.100
4.200	3.685	0.100
4.300	1.658	0.100
4.400	-9.572	0.100
4.500	-0.606	0.100
4.600	0.235	0.100
4.700	-2.960	0.100
4.800	-4.507	0.100
4.900	-7.170	0.100
5.000	-5.442	0.100
5.100	-6.610	0.100
5.200	-4.533	0.100
5.300	-5.118	0.100
5.400	-2.864	0.100
5.500	-4.478	0.100
5.600	0.275	0.100
5.700	-11.874	0.100
5.800	-6.454	0.100
5.900	-9.318	0.100
6.000	0.781	0.100
6.100	5.187	0.100
6.200	-14.271	0.100
6.300	-6.920	0.100
6.400	-2.589	0.100
6.500	0.964	0.100
6.600	-7.234	0.100
6.700	-18.154	0.100
6.800	1.017	0.100
6.900	9.062	0.100
7.000	-4.483	0.100
7.100	-11.095	0.100
7.200	-7.449	0.100
7.300	-4.131	0.100
7.400	-0.101	0.100
7.500	-2.544	0.100
7.600	-14.485	0.100
7.700	-8.336	0.100
7.800	-15.512	0.100
7.900	-3.808	0.100
8.000	-7.493	0.100
8.100	-8.155	0.100
8.200	-6.695	0.100
8.300	-6.877	0.100
8.400	-12.314	0.100
8.500	-9.196	0.100
8.600	-4.604	0.100
8.700	-17.660	0.100
8.800	-0.278	0.100
8.900	-3.853	0.100
9.000	-16.287	0.100
9.100	-3.675	0.100
9.200	-7.480	0.100
9.300	-0.923	0.100
9.400	-4.114	0.100
9.500	2.717	0.100
9.600	-2.663	0.100
9.700	-0.803	0.100
9.800	0.031	0.100
9.900	-13.741	0.100
10.000	-20.837	0.100
10.100	-1.989	0.100
10.200	3.522	0.100
10.300	-10.972	0.100
10.400	-13.902	0.100
10.500	-13.785	0.100
10.600	3.354	0.100
10.700	11.305	0.100
10.800	-3.198	0.100
10.900	-8.078	0.100
11.000	-5.880	0.100
11.100	2.451	0.100
11.200	-9.360	0.100
11.300	9.541	0.100
11.400	-11.387	0.100
11.500	-10.815	0.100
11.600	1.084	0.100
11.700	-0.378	0.100
11.800	7.250	0.100
11.900	-7.179	0.100
12.000	-3.701	0.100
12.100	-8.039	0.100
12.200	-5.843	0.100
12.300	-8.111	0.100
12.400	-16.903	0.100
12.500	-8.363	0.100
12.600	-9.610	0.100
12.700	-4.491	0.100
12.800	-3.162	0.100
12.900	-6.825	0.100
13.000	-10.869	0.100
13.100	4.352	0.100
13.200	6.930	0.100
13.300	-2.504	0.100
13.400	-13.365	0.100
13.500	-4.604	0.100
13.600	-19.391	0.100
13.700	-3.408	0.100
13.800	3.605	0.100
13.900	-20.013	0.100
14.000	-7.217	0.100
14.100	-13.595	0.100
14.200	0.920	0.100
14.300	-2.562	0.100
14.400	-1.280	0.100
14.500	4.603	0.100
14.600	-6.872	0.100
14.700	-8.621	0.100
14.800	-19.681	0.100
14.900	-2.727	0.100
15.000	-2.795	0.100
15.100	1.684	0.100
15.200	-11.385	0.100
15.300	-4.754	0.100
15.400	-5.352	0.100
15.500	5.199	0.100
15.600	-2.234	0.100
15.700	-7.286	0.100
15.800	-9.012	0.100
15.900	-12.805	0.100
16.000	-3.092	0.100
16.100	0.495	0.100
16.200	-8.441	0.100
16.300	-5.194	0.100
16.400	-12.901	0.100
16.500	-18.630	0.100
16.600	-3.704	0.100
16.700	-3.169	0.100
16.800	-24.601	0.100
16.900	-11.710	0.100
17.000	-12.929	0.100
17.100	-5.553	0.100
17.200	8.373	0.100
17.300	3.374	0.100
17.400	-5.310	0.100
17.500	-18.718	0.100
17.600	0.181	0.100
17.700	-4.319	0.100
17.800	6.093	0.100
17.900	-6.558	0.100
18.000	-18.997	0.100
18.100	-6.548	0.100
18.200	-8.011	0.100
18.300	4.321	0.100
18.400	0.868	0.100
18.500	-2.987	0.100
18.600	-1.760	0.100
18.700	-6.553	0.100
18.800	-10.860	0.100
18.900	-5.471	0.100
19.000	-7.012	0.100
19.100	-7.754	0.100
19.200	-14.722	0.100
19.300	-1.435	0.100
19.400	-0.455	0.100
19.500	-1.903	0.100
19.600	-5.477	0.100
19.700	-5.481	0.100
19.800	-7.877	0.100
19.900	-0.839	0.100
20.000	3.324	0.100
20.100	5.900	0.100
20.200	-11.510	0.100
20.300	-10.533	0.100
20.400	-1.005	0.100
20.500	3.113	0.100
20.600	-2.673	0.100
20.700	-13.377	0.100
20.800	1.396	0.100
20.900	-8.821	0.100
21.000	5.849	0.100
21.100	-9.787	0.100
21.200	-9.378	0.100
21.300	-3.052	0.100
21.400	-16.886	0.100
21.500	-12.105	0.100
21.600	-8.294	0.100
21.700	-1.464	0.100
21.800	-3.314	0.100
21.900	6.982	0.100
22.000	-0.630	0.100
22.100	0.148	0.100
22.200	-5.617	0.100
22.300	-20.789	0.100
22.400	-9.408	0.100
22.500	0.637	0.100
22.600	-0.817	0.100
22.700	-6.268	0.100
22.800	0.604	0.100
22.900	0.450	0.100
23.000	-4.881	0.100
23.100	-12.669	0.100
23.200	-15.006	0.100
23.300	-12.047	0.100
23.400	-0.588	0.100
23.500	-4.514	0.100
23.600	-12.967	0.100
23.700	-4.554	0.100
23.800	-17.227	0.100
23.900	-11.374	0.100
24.000	0.424	0.100
24.100	4.574	0.100
24.200	-5.040	0.100
24.300	0.669	0.100
24.400	-2.025	0.100
24.500	-3.259	0.100
24.600	-5.817	0.100
24.700	-9.858	0.100
24.800	-11.862	0.100
24.900	-0.937	0.100
25.000	-0.135	0.100
25.100	-2.977	0.100
25.200	-12.179	0.100
25.300	8.909	0.100
25.400	-6.646	0.100
25.500	-8.452	0.100
25.600	-5.258	0.100
25.700	0.440	0.100
25.800	-0.276	0.100
25.900	-7.106	0.100
26.000	-2.914	0.100
26.100	-1.545	0.100
26.200	-8.147	0.100
26.300	-8.270	0.100
26.400	-9.477	0.100
26.500	-5.146	0.100
26.600	0.309	0.100
26.700	-12.816	0.100
26.800	0.485	0.100
26.900	-17.328	0.100
27.000	4.632	0.100
27.100	-6.827	0.100
27.200	-12.686	0.100
27.300	0.320	0.100
27.400	-15.551	0.100
27.500	-1.053	0.100
27.600	13.846	0.100
27.700	-12.995	0.100
27.800	-17.868	0.100
27.900	-21.940	0.100
28.000	-4.177	0.100
28.100	1.999	0.100
28.200	-2.897	0.100
28.300	-5.041	0.100
28.400	-1.936	0.100
28.500	-2.050	0.100
28.600	7.319	0.100
28.700	-4.422	0.100
28.800	-16.760	0.100
28.900	-9.487	0.100
29.000	-6.562	0.100
29.100	2.517	0.100
29.200	-10.675	0.100
29.300	-10.171	0.100
29.400	-16.275	0.100
29.500	2.593	0.100
29.600	-10.257	0.100
29.700	5.735	0.100
29.800	-0.968	0.100
29.900	-3.846	0.100
30.000	11.951	0.100
30.100	-2.326	0.100
30.200	4.397	0.100
30.300	-3.390	0.100
30.400	-5.125	0.100
30.500	6.902	0.100
30.600	3.805	0.100
30.700	-15.542	0.100
30.800	0.587	0.100
30.900	-9.117	0.100
31.000	6.709	0.100
31.100	0.798	0.100
31.200	0.581	0.100
31.300	12.397	0.100
31.400	-1.490	0.100
31.500	10.010	0.100
31.600	-0.014	0.100
31.700	13.855	0.100
31.800	-0.275	0.100
31.900	-18.673	0.100
32.000	-17.158	0.100
32.100	-0.629	0.100
32.200	16.293	0.100
32.300	13.943	0.100
32.400	17.193	0.100
32.500	7.697	0.100
32.600	-3.710	0.100
32.700	5.576	0.100
32.800	-0.530	0.100
32.900	10.872	0.100
33.000	16.858	0.100
33.100	19.904	0.100
33.200	16.343	0.100
33.300	5.841	0.100
33.400	11.981	0.100
33.500	6.618	0.100
33.600	10.677	0.100
33.700	14.500	0.100
33.800	8.377	0.100
33.900	21.925	0.100
34.000	20.479	0.100
34.100	19.422	0.100
34.200	22.244	0.100
34.300	13.709	0.100
34.400	22.065	0.100
34.500	14.879	0.100
34.600	24.597	0.100
34.700	22.451	0.099
34.800	17.538	0.099
34.900	11.725	0.099
35.000	-4.031	0.099
35.100	24.216	0.099
35.200	18.061	0.099
35.300	13.348	0.099
35.400	31.557	0.099
35.500	15.102	0.099
35.600	16.778	0.099
35.700	14.349	0.099
35.800	12.606	0.099
35.900	13.176	0.099
36.000	31.403	0.099
36.100	25.831	0.099
36.200	19.154	0.099
36.300	25.420	0.099
36.400	15.932	0.099
36.500	14.193	0.099
36.600	17.179	0.099
36.700	10.467	0.099
36.800	19.915	0.099
36.900	21.370	0.099
37.000	18.189	0.099
37.100	25.185	0.099
37.200	22.847	0.099
37.300	23.284	0.099
37.400	14.858	0.099
37.500	23.262	0.099
37.600	18.967	0.099
37.700	32.391	0.099
37.800	18.944	0.099
37.900	14.052	0.099
38.000	17.515	0.099
38.100	19.390	0.099
38.200	24.727	0.099
38.300	13.937	0.099
38.400	26.032	0.099
38.500	26.593	0.099
38.600	28.301	0.099
38.700	17.815	0.099
38.800	35.551	0.099
38.900	21.610	0.099
39.000	39.852	0.099
39.100	12.486	0.099
39.200	10.519	0.099
39.300	24.512	0.099
39.400	31.059	0.099
39.500	34.665	0.099
39.600	23.814	0.099
39.700	24.427	0.099
39.800	24.289	0.099
39.900	15.933	0.099
40.000	21.564	0.099
40.100	24.394	0.099
40.200	31.124	0.099
40.300	20.510	0.099
40.400	14.689	0.099
40.500	17.515	0.099
40.600	10.179	0.099
40.700	23.159	0.099
40.800	17.839	0.099
40.900	33.805	0.099
41.000	23.424	0.099
41.100	14.366	0.099
41.200	19.807	0.099
41.300	21.594	0.099
41.400	21.300	0.099
41.500	26.657	0.099
41.600	22.602	0.099
41.700	19.295	0.099
41.800	17.843	0.099
41.900	29.111	0.099
42.000	18.997	0.099
42.100	24.964	0.099
42.200	17.464	0.099
42.300	17.452	0.099
42.400	18.643	0.099
42.500	18.028	0.099
42.600	24.724	0.099
42.700	20.566	0.099
42.800	21.838	0.099
42.900	16.046	0.099
43.000	25.984	0.099
43.100	27.154	0.099
43.200	20.448	0.099
43.300	24.889	0.099
43.400	9.035	0.099
43.500	16.200	0.099
43.600	22.542	0.099
43.700	16.195	0.099
43.800	26.972	0.099
43.900	19.326	0.099
44.000	22.602	0.099
44.100	25.722	0.099
44.200	16.834	0.099
44.300	13.308	0.099
44.400	35.138	0.099
44.500	22.535	0.099
44.600	28.233	0.099
44.700	10.920	0.099
44.800	7.712	0.099
44.900	22.000	0.099
45.000	35.923	0.099
45.100	5.820	0.099
45.200	25.064	0.099
45.300	29.354	0.099
45.400	23.044	0.099
45.500	22.672	0.099
45.600	30.714	0.099
45.700	22.005	0.099
45.800	25.363	0.099
45.900	28.166	0.099
46.000	19.457	0.099
46.100	26.540	0.099
46.200	20.523	0.099
46.300	29.688	0.099
46.400	15.525	0.099
46.500	19.570	0.099
46.600	28.839	0.099
46.700	27.579	0.099
46.800	27.894	0.099
46.900	33.574	0.099
47.000	33.591	0.099
47.100	13.879	0.099
47.200	16.037	0.099
47.300	16.964	0.099
47.400	22.408	0.099
47.500	34.325	0.099
47.600	22.346	0.099
47.700	29.996	0.099
47.800	28.720	0.099
47.900	16.626	0.099
48.000	14.297	0.099
48.100	14.013	0.099
48.200	19.503	0.099
48.300	22.673	0.099
48.400	15.781	0.099
48.500	23.515	0.099
48.600	22.067	0.099
48.700	24.706	0.099
48.800	29.217	0.099
48.900	33.737	0.099
49.000	27.620	0.099
49.100	19.366	0.099
49.200	14.113	0.099
49.300	23.748	0.099
49.400	24.486	0.099
49.500	22.303	0.099
49.600	24.048	0.099
49.700	25.942	0.099
49.800	27.444	0.099
49.900	14.637	0.099
50.000	25.112	0.099
50.100	20.954	0.099
50.200	15.768	0.099
50.300	21.535	0.099
50.400	34.509	0.099
50.500	26.565	0.099
50.600	26.496	0.099
50.700	24.206	0.099
50.800	22.598	0.099
50.900	10.830	0.099
51.000	10.574	0.099
51.100	21.987	0.099
51.200	24.349	0.099
51.300	28.482	0.099
51.400	23.249	0.099
51.500	24.216	0.099
51.600	20.953	0.099
51.700	17.825	0.099
51.800	26.883	0.099
51.900	24.611	0.099
52.000	24.660	0.099
52.100	28.474	0.099
52.200	20.606	0.099
52.300	24.507	0.099
52.400	3.028	0.099
52.500	10.344	0.099
52.600	27.295	0.099
52.700	29.335	0.099
52.800	18.973	0.099
52.900	18.580	0.099
53.000	9.908	0.099
53.100	22.925	0.099
53.200	27.040	0.099
53.300	30.846	0.099
53.400	29.560	0.099
53.500	15.021	0.099
53.600	14.169	0.099
53.700	22.883	0.099
53.800	15.114	0.099
53.900	18.241	0.099
54.000	22.483	0.099
54.100	16.531	0.099
54.200	10.874	0.099
54.300	24.332	0.099
54.400	27.457	0.099
54.500	20.910	0.099
54.600	34.256	0.099
54.700	19.085	0.099
54.800	27.085	0.100
54.900	24.859	0.100
55.000	13.184	0.100
55.100	15.808	0.100
55.200	25.475	0.100
55.300	31.773	0.100
55.400	26.415	0.100
55.500	28.564	0.099
55.600	34.517	0.100
55.700	26.715	0.100
55.800	25.153	0.100
55.900	27.815	0.100
56.000	17.145	0.100
56.100	28.672	0.099
56.200	16.731	0.099
56.300	23.494	0.099
56.400	29.941	0.100
56.500	29.228	0.100
56.600	16.239	0.100
56.700	7.936	0.100
56.800	27.891	0.100
56.900	27.119	0.100
57.000	26.985	0.099
57.100	15.705	0.099
57.200	20.290	0.099
57.300	14.972	0.099
57.400	24.762	0.099
57.500	29.357	0.099
57.600	16.324	0.099
57.700	27.894	0.099
57.800	26.218	0.099
57.900	35.074	0.099
58.000	21.782	0.099
58.100	25.087	0.099
58.200	20.669	0.099
58.300	32.131	0.100
58.400	9.713	0.099
58.500	24.221	0.099
58.600	34.530	0.099
58.700	26.806	0.099
58.800	29.704	0.099
58.900	14.294	0.099
59.000	27.119	0.099
59.100	34.510	0.099
59.200	24.393	0.099
59.300	27.980	0.099
59.400	26.608	0.099
59.500	24.989	0.099
59.600	31.059	0.099
59.700	29.267	0.099
59.800	20.191	0.099
59.900	27.276	0.099
60.000	23.756	0.099
60.100	28.472	0.099
60.200	25.180	0.099
60.300	19.246	0.099
60.400	38.931	0.099
60.500	32.825	0.100
60.600	29.255	0.099
60.700	19.488	0.099
60.800	13.964	0.099
60.900	36.549	0.099
61.000	28.426	0.100
61.100	25.384	0.100
61.200	19.286	0.099
61.300	32.871	0.100
61.400	24.962	0.099
61.500	17.614	0.099
61.600	15.536	0.100
61.700	30.083	0.099
61.800	23.729	0.100
61.900	13.100	0.099
62.000	31.860	0.100
62.100	28.965	0.099
62.200	21.463	0.099
62.300	26.751	0.099
62.400	34.509	0.099
62.500	34.821	0.099
62.600	24.768	0.099
62.700	32.968	0.099
62.800	28.456	0.099
62.900	22.568	0.100
63.000	35.100	0.099
63.100	32.019	0.099
63.200	27.088	0.099
63.300	22.458	0.099
63.400	34.617	0.099
63.500	32.355	0.099
63.600	25.176	0.099
63.700	34.622	0.099
63.800	26.291	0.100
63.900	34.095	0.099
64.000	19.020	0.099
64.100	18.208	0.099
64.200	27.000	0.100
64.300	37.627	0.099
64.400	30.334	0.099
64.500	29.373	0.100
64.600	31.075	0.100
64.700	6.964	0.099
64.800	14.895	0.099
64.900	26.005	0.100
65.000	21.858	0.099
65.100	31.800	0.099
65.200	42.209	0.099
65.300	17.469	0.099
65.400	32.475	0.099
65.500	17.745	0.099
65.600	33.945	0.099
65.700	40.321	0.099
65.800	34.624	0.100
65.900	17.516	0.099
66.000	32.648	0.099
66.100	11.401	0.100
66.200	20.734	0.099
66.300	36.330	0.099
66.400	27.005	0.099
66.500	40.804	0.099
66.600	29.942	0.099
66.700	19.476	0.100
66.800	19.835	0.099
66.900	23.627	0.100
67.000	20.648	0.099
67.100	32.107	0.099
67.200	43.518	0.099
67.300	38.235	0.099
67.400	20.348	0.100
67.500	24.381	0.099
67.600	26.815	0.099
67.700	26.304	0.099
67.800	23.311	0.100
67.900	11.618	0.099
68.000	18.548	0.099
68.100	21.721	0.099
68.200	49.147	0.099
68.300	26.319	0.100
68.400	24.232	0.099
68.500	20.716	0.099
68.600	23.673	0.099
68.700	22.008	0.099
68.800	27.390	0.099
68.900	31.254	0.099
69.000	32.056	0.099
69.100	14.274	0.099
69.200	37.113	0.099
69.300	27.643	0.099
69.400	29.035	0.099
69.500	13.151	0.099
69.600	28.424	0.099
69.700	37.161	0.099
69.800	29.310	0.099
69.900	32.662	0.099
70.000	32.933	0.099
70.100	25.498	0.099
70.200	39.597	0.099
70.300	25.509	0.099
70.400	28.083	0.099
70.500	13.990	0.099
70.600	25.924	0.099
70.700	23.510	0.099
70.800	39.390	0.099
70.900	32.259	0.099
71.000	36.311	0.099
71.100	31.883	0.099
71.200	31.171	0.099
71.300	33.339	0.099
71.400	25.595	0.099
71.500	33.018	0.099
71.600	35.812	0.099
71.700	27.709	0.099
71.800	36.990	0.099
71.900	26.497	0.099
72.000	16.008	0.100
72.100	22.577	0.099
72.200	35.279	0.099
72.300	25.890	0.099
72.400	34.202	0.099
72.500	32.567	0.099
72.600	31.151	0.100
72.700	25.196	0.100
72.800	17.996	0.099
72.900	26.906	0.099
73.000	28.552	0.099
73.100	17.658	0.099
73.200	34.277	0.099
73.300	24.979	0.099
73.400	30.686	0.099
73.500	30.003	0.099
73.600	31.291	0.099
73.700	24.698	0.099
73.800	35.684	0.099
73.900	38.622	0.099
74.000	33.835	0.099
74.100	31.413	0.099
74.200	34.987	0.099
74.300	11.017	0.100
74.400	25.675	0.099
74.500	30.998	0.099
74.600	27.286	0.099
74.700	24.612	0.099
74.800	15.611	0.099
74.900	31.154	0.099
75.000	29.955	0.099
75.100	35.727	0.099
75.200	23.445	0.099
75.300	32.879	0.099
75.400	19.913	0.100
75.500	8.314	0.099
75.600	26.282	0.099
75.700	35.886	0.099
75.800	35.602	0.099
75.900	8.279	0.099
76.000	25.543	0.099
76.100	35.054	0.099
76.200	41.952	0.099
76.300	34.790	0.099
76.400	22.702	0.099
76.500	19.813	0.099
76.600	31.043	0.099
76.700	42.707	0.099
76.800	33.100	0.099
76.900	33.737	0.099
77.000	25.635	0.100
77.100	29.710	0.100
77.200	28.449	0.100
77.300	37.746	0.099
77.400	28.704	0.099
77.500	22.498	0.099
77.600	36.178	0.099
77.700	30.031	0.099
77.800	27.855	0.099
77.900	27.882	0.100
78.000	34.535	0.099
78.100	29.125	0.099
78.200	20.582	0.099
78.300	34.467	0.099
78.400	27.282	0.099
78.500	18.933	0.100
78.600	30.837	0.099
78.700	19.469	0.099
78.800	33.899	0.099
78.900	29.111	0.100
79.000	25.572	0.099
79.100	27.386	0.099
79.200	32.606	0.099
79.300	27.874	0.099
79.400	34.958	0.099
79.500	17.934	0.099
79.600	24.755	0.099
79.700	23.406	0.099
79.800	29.535	0.099
79.900	21.292	0.099
80.000	44.697	0.099
80.100	27.161	0.099
80.200	26.463	0.099
80.300	28.006	0.099
80.400	33.726	0.099
80.500	23.361	0.099
80.600	28.447	0.099
80.700	45.011	0.099
80.800	44.959	0.099
80.900	31.324	0.099
81.000	31.510	0.099
81.100	37.650	0.100
81.200	34.460	0.099
81.300	32.514	0.099
81.400	30.307	0.099
81.500	31.346	0.099
81.600	28.017	0.100
81.700	24.118	0.099
81.800	32.458	0.099
81.900	31.161	0.099
82.000	24.875	0.100
82.100	35.062	0.099
82.200	28.647	0.099
82.300	26.392	0.099
82.400	27.926	0.099
82.500	33.920	0.099
82.600	34.169	0.099
82.700	17.692	0.100
82.800	24.889	0.099
82.900	28.022	0.099
83.000	24.178	0.099
83.100	30.821	0.099
83.200	33.134	0.099
83.300	34.559	0.099
83.400	43.060	0.099
83.500	22.830	0.099
83.600	34.621	0.099
83.700	32.699	0.099
83.800	29.813	0.100
83.900	19.155	0.099
84.000	24.507	0.099
84.100	27.774	0.100
84.200	37.850	0.100
84.300	45.192	0.099
84.400	43.100	0.099
84.500	40.797	0.100
84.600	33.032	0.099
84.700	26.604	0.099
84.800	23.077	0.099
84.900	19.356	0.099
85.000	31.508	0.099
85.100	29.411	0.099
85.200	25.862	0.099
85.300	26.891	0.099
85.400	36.149	0.099
85.500	40.020	0.099
85.600	33.908	0.099
85.700	42.149	0.099
85.800	34.950	0.099
85.900	32.791	0.099
86.000	31.533	0.099
86.100	33.324	0.099
86.200	24.297	0.099
86.300	33.409	0.099
86.400	34.977	0.099
86.500	36.157	0.099
86.600	22.627	0.099
86.700	21.426	0.099
86.800	24.508	0.099
86.900	26.814	0.099
87.000	30.383	0.099
87.100	30.043	0.099
87.200	33.141	0.099
87.300	34.119	0.099
87.400	30.340	0.099
87.500	34.576	0.099
87.600	39.939	0.099
87.700	26.138	0.099
87.800	36.419	0.100
87.900	31.597	0.099
88.000	39.394	0.099
88.100	24.640	0.099
88.200	44.061	0.099
88.300	19.904	0.099
88.400	28.543	0.099
88.500	32.047	0.099
88.600	30.905	0.100
88.700	32.626	0.099
88.800	35.686	0.099
88.900	36.716	0.099
89.000	28.647	0.099
89.100	39.535	0.099
89.200	24.107	0.099
89.300	36.317	0.099
89.400	29.126	0.099
89.500	27.700	0.099
89.600	32.206	0.099
89.700	29.090	0.099
89.800	20.509	0.099
89.900	35.954	0.099
90.000	34.024	0.099
90.100	23.457	0.099
90.200	16.215	0.099
90.300	29.692	0.099
90.400	12.143	0.099
90.500	17.081	0.099
90.600	22.732	0.099
90.700	20.398	0.099
90.800	23.250	0.099
90.900	17.774	0.099
91.000	7.018	0.099
91.100	10.127	0.099
91.200	22.083	0.099
91.300	3.053	0.099
91.400	4.197	0.099
91.500	-0.279	0.099
91.600	16.856	0.099
91.700	13.857	0.099
91.800	8.912	0.099
91.900	3.352	0.099
92.000	9.840	0.099
92.100	6.055	0.099
92.200	0.239	0.099
92.300	-3.291	0.099
92.400	-0.409	0.099
92.500	-17.272	0.099
92.600	-5.479	0.099
92.700	4.877	0.099
92.800	3.569	0.099
92.900	-0.399	0.099
93.000	6.791	0.099
93.100	-2.054	0.099
93.200	3.155	0.099
93.300	5.728	0.099
93.400	-2.756	0.099
93.500	6.800	0.099
93.600	-9.824	0.099
93.700	9.262	0.099
93.800	4.130	0.099
93.900	4.504	0.099
94.000	-14.085	0.099
94.100	1.314	0.099
94.200	-6.016	0.099
94.300	-4.290	0.100
94.400	2.635	0.100
94.500	8.506	0.100
94.600	-2.301	0.099
94.700	-3.388	0.099
94.800	-1.446	0.099
94.900	-12.111	0.099
95.000	1.893	0.099
95.100	-2.335	0.099
95.200	-7.914	0.099
95.300	-8.882	0.099
95.400	-15.104	0.099
95.500	2.636	0.099
95.600	-7.406	0.099
95.700	-11.075	0.099
