time /s	I /nA	E /V
0.100	19.072	0.099
0.200	-4.661	0.099
0.300	-7.294	0.099
0.400	-11.105	0.099
0.500	-10.806	0.099
0.600	2.348	0.099
0.700	-17.232	0.099
0.800	-6.757	0.099
0.900	2.858	0.099
1.000	2.833	0.099
1.100	-14.111	0.099
1.200	4.401	0.099
1.300	0.240	0.099
1.400	-8.527	0.099
1.500	-12.946	0.099
1.600	-23.591	0.099
1.700	3.635	0.099
1.800	-1.873	0.099
1.900	-0.757	0.099
2.000	-3.484	0.099
2.100	-1.623	0.099
2.200	-1.230	0.099
2.300	-9.692	0.099
2.400	-12.658	0.099
2.500	-31.782	0.099
2.600	0.520	0.099
2.700	2.398	0.099
2.800	-6.815	0.099
2.900	-9.679	0.099
3.000	-14.059	0.099
3.100	-9.630	0.099
3.200	-4.425	0.099
3.300	4.413	0.099
3.400	1.631	0.099
3.500	-16.280	0.099
3.600	-17.000	0.099
3.700	-9.199	0.099
3.800	-7.911	0.099
3.900	-6.186	0.099
4.000	-11.179	0.099
4.100	-12.191	0.099
4.200	-3.890	0.099
4.300	-9.100	0.099
4.400	9.399	0.099
4.500	-9.472	0.099
4.600	-22.154	0.099
4.700	1.782	0.099
4.800	-6.065	0.099
4.900	-2.788	0.099
5.000	-20.482	0.099
5.100	11.515	0.099
5.200	-30.638	0.099
5.300	-21.479	0.099
5.400	0.451	0.099
5.500	0.345	0.099
5.600	-15.307	0.099
5.700	-9.096	0.099
5.800	6.030	0.099
5.900	-12.631	0.099
6.000	-7.233	0.099
6.100	-1.361	0.099
6.200	3.241	0.099
6.300	-6.759	0.099
6.400	-16.498	0.099
6.500	-17.306	0.099
6.600	4.454	0.099
6.700	-8.157	0.099
6.800	-1.213	0.099
6.900	1.096	0.099
7.000	-11.083	0.099
7.100	10.200	0.099
7.200	-12.969	0.099
7.300	6.919	0.099
7.400	-16.157	0.099
7.500	-15.991	0.099
7.600	12.563	0.099
7.700	-8.739	0.099
7.800	-1.588	0.099
7.900	-11.210	0.099
8.000	13.361	0.099
8.100	5.640	0.099
8.200	-19.779	0.099
8.300	-22.655	0.099
8.400	4.613	0.099
8.500	-8.221	0.099
8.600	-3.929	0.099
8.700	2.643	0.099
8.800	-2.201	0.099
8.900	2.984	0.099
9.000	-8.478	0.099
9.100	-1.569	0.099
9.200	5.468	0.099
9.300	-0.958	0.099
9.400	6.174	0.099
9.500	-24.895	0.099
9.600	-1.290	0.099
9.700	-8.928	0.099
9.800	-10.342	0.099
9.900	-8.829	0.099
10.000	-19.252	0.099
10.100	3.093	0.099
10.200	-8.658	0.099
10.300	-9.913	0.099
10.400	8.510	0.099
10.500	-16.944	0.099
10.600	15.277	0.099
10.700	-24.570	0.099
10.800	-6.841	0.099
10.900	3.334	0.099
11.000	-20.493	0.099
11.100	-1.437	0.099
11.200	-7.576	0.099
11.300	-4.559	0.099
11.400	0.736	0.099
11.500	-8.209	0.099
11.600	-18.175	0.099
11.700	10.988	0.099
11.800	-2.322	0.099
11.900	-9.792	0.099
12.000	-31.476	0.099
12.100	-0.107	0.099
12.200	12.657	0.099
12.300	-7.283	0.099
12.400	6.344	0.099
12.500	-17.235	0.099
12.600	-11.793	0.099
12.700	-9.113	0.099
12.800	-5.028	0.099
12.900	-6.784	0.099
13.000	1.369	0.099
13.100	-2.634	0.099
13.200	-3.750	0.099
13.300	-13.885	0.099
13.400	-7.839	0.099
13.500	-7.459	0.099
13.600	-7.079	0.099
13.700	-5.164	0.099
13.800	-11.488	0.099
13.900	4.733	0.099
14.000	-7.648	0.099
14.100	-5.665	0.099
14.200	-14.297	0.099
14.300	-22.402	0.099
14.400	17.178	0.099
14.500	-0.867	0.099
14.600	-5.277	0.099
14.700	-15.910	0.099
14.800	-3.880	0.099
14.900	-12.112	0.099
15.000	-3.014	0.099
15.100	-4.576	0.099
15.200	14.912	0.099
15.300	-6.023	0.099
15.400	-5.171	0.099
15.500	-20.922	0.099
15.600	-7.327	0.099
15.700	-27.826	0.099
15.800	-0.182	0.099
15.900	-2.215	0.099
16.000	5.746	0.099
16.100	-6.126	0.099
16.200	12.951	0.099
16.300	-11.390	0.099
16.400	10.022	0.099
16.500	-19.590	0.099
16.600	-17.169	0.099
16.700	-3.066	0.099
16.800	1.995	0.099
16.900	-12.105	0.099
17.000	-13.191	0.099
17.100	3.137	0.099
17.200	-5.354	0.099
17.300	-2.233	0.099
17.400	-0.499	0.099
17.500	-16.676	0.099
17.600	1.674	0.099
17.700	-8.024	0.099
17.800	6.146	0.099
17.900	-9.759	0.099
18.000	-9.705	0.099
18.100	-2.003	0.099
18.200	-7.101	0.099
18.300	-3.940	0.099
18.400	-1.077	0.099
18.500	-1.172	0.099
18.600	-4.914	0.099
18.700	-3.401	0.099
18.800	-8.383	0.099
18.900	2.188	0.099
19.000	-15.835	0.099
19.100	1.487	0.099
19.200	-24.792	0.099
19.300	6.703	0.100
19.400	22.953	0.099
19.500	-8.215	0.099
19.600	-1.791	0.100
19.700	2.820	0.100
19.800	-5.930	0.100
19.900	-14.471	0.100
20.000	-4.445	0.100
20.100	-20.355	0.100
20.200	-21.018	0.100
20.300	-1.264	0.100
20.400	-4.359	0.100
20.500	1.890	0.100
20.600	-2.112	0.100
20.700	-0.905	0.100
20.800	-17.014	0.100
20.900	0.219	0.100
21.000	-14.952	0.100
21.100	-9.125	0.100
21.200	-5.235	0.100
21.300	4.143	0.099
21.400	0.035	0.100
21.500	4.416	0.100
21.600	2.733	0.099
21.700	3.102	0.100
21.800	-5.801	0.100
21.900	-12.310	0.099
22.000	-21.093	0.099
22.100	5.528	0.099
22.200	-20.973	0.099
22.300	-14.284	0.100
22.400	3.738	0.100
22.500	-12.983	0.099
22.600	-0.381	0.099
22.700	-7.605	0.099
22.800	-9.485	0.100
22.900	-2.365	0.100
23.000	-2.108	0.099
23.100	3.214	0.100
23.200	-16.950	0.099
23.300	-0.643	0.099
23.400	4.910	0.100
23.500	-13.501	0.099
23.600	-13.112	0.099
23.700	15.551	0.099
23.800	-8.779	0.099
23.900	6.350	0.099
24.000	-17.640	0.099
24.100	-0.551	0.099
24.200	4.645	0.099
24.300	-12.570	0.099
24.400	16.417	0.099
24.500	4.018	0.099
24.600	11.422	0.099
24.700	-7.942	0.099
24.800	-4.908	0.100
24.900	-11.892	0.100
25.000	1.077	0.100
25.100	-5.063	0.100
25.200	2.632	0.100
25.300	-6.495	0.100
25.400	-13.780	0.100
25.500	1.284	0.099
25.600	-5.089	0.099
25.700	-2.407	0.100
25.800	-4.516	0.099
25.900	-9.440	0.099
26.000	-11.646	0.099
26.100	-13.482	0.099
26.200	-16.216	0.099
26.300	-20.251	0.099
26.400	-1.470	0.099
26.500	3.195	0.099
26.600	3.703	0.099
26.700	-14.868	0.099
26.800	-5.114	0.099
26.900	-1.865	0.099
27.000	-5.320	0.099
27.100	-2.646	0.100
27.200	1.454	0.099
27.300	-23.824	0.099
27.400	-7.934	0.100
27.500	-3.932	0.099
27.600	3.003	0.099
27.700	-1.852	0.099
27.800	3.784	0.099
27.900	-8.655	0.099
28.000	-10.520	0.099
28.100	-18.804	0.099
28.200	-2.720	0.099
28.300	3.778	0.099
28.400	-12.684	0.099
28.500	1.475	0.099
28.600	-19.276	0.099
28.700	-10.786	0.099
28.800	-0.174	0.099
28.900	0.030	0.099
29.000	3.968	0.100
29.100	-9.641	0.099
29.200	-1.092	0.099
29.300	8.448	0.099
29.400	-12.312	0.099
29.500	-8.704	0.099
29.600	-8.185	0.099
29.700	5.246	0.099
29.800	-6.952	0.099
29.900	-5.727	0.099
30.000	4.276	0.099
30.100	-25.883	0.099
30.200	-5.031	0.099
30.300	-9.249	0.099
30.400	-2.475	0.099
30.500	-17.625	0.099
30.600	1.774	0.099
30.700	13.181	0.099
30.800	-6.510	0.099
30.900	-4.481	0.099
31.000	11.668	0.099
31.100	9.620	0.099
31.200	-0.044	0.099
31.300	8.748	0.099
31.400	22.709	0.099
31.500	5.517	0.099
31.600	3.654	0.099
31.700	-1.632	0.100
31.800	24.599	0.099
31.900	22.288	0.100
32.000	16.066	0.100
32.100	9.628	0.099
32.200	9.677	0.099
32.300	26.118	0.099
32.400	20.352	0.100
32.500	23.300	0.099
32.600	16.358	0.099
32.700	14.871	0.099
32.800	31.533	0.099
32.900	17.108	0.100
33.000	19.617	0.099
33.100	9.958	0.099
33.200	24.279	0.099
33.300	14.292	0.099
33.400	14.224	0.099
33.500	40.429	0.100
33.600	26.560	0.099
33.700	28.386	0.099
33.800	26.575	0.100
33.900	26.298	0.099
34.000	47.027	0.100
34.100	16.369	0.099
34.200	25.243	0.099
34.300	37.424	0.099
34.400	26.469	0.100
34.500	41.892	0.099
34.600	28.978	0.099
34.700	35.659	0.099
34.800	34.922	0.099
34.900	11.993	0.099
35.000	39.028	0.099
35.100	38.328	0.099
35.200	24.377	0.099
35.300	37.221	0.099
35.400	24.141	0.100
35.500	24.998	0.099
35.600	34.708	0.100
35.700	19.734	0.099
35.800	54.499	0.100
35.900	25.798	0.100
36.000	38.209	0.099
36.100	27.852	0.100
36.200	36.930	0.099
36.300	30.339	0.099
36.400	28.975	0.099
36.500	36.279	0.099
36.600	22.153	0.099
36.700	31.659	0.099
36.800	28.517	0.100
36.900	36.653	0.099
37.000	37.159	0.100
37.100	32.151	0.100
37.200	23.157	0.099
37.300	16.571	0.100
37.400	34.896	0.099
37.500	49.963	0.100
37.600	17.606	0.099
37.700	23.894	0.100
37.800	28.909	0.099
37.900	5.383	0.099
38.000	36.648	0.100
38.100	32.518	0.100
38.200	12.772	0.099
38.300	11.956	0.100
38.400	45.704	0.100
38.500	18.214	0.099
38.600	21.083	0.099
38.700	36.949	0.100
38.800	7.428	0.099
38.900	8.586	0.099
39.000	29.013	0.099
39.100	23.395	0.100
39.200	30.096	0.100
39.300	2.469	0.100
39.400	40.368	0.099
39.500	37.839	0.100
39.600	22.915	0.100
39.700	28.587	0.100
39.800	13.902	0.100
39.900	8.089	0.099
40.000	25.315	0.100
40.100	18.279	0.099
40.200	15.792	0.099
40.300	19.455	0.099
40.400	14.217	0.100
40.500	22.270	0.100
40.600	11.879	0.099
40.700	33.605	0.100
40.800	28.084	0.100
40.900	22.046	0.100
41.000	13.552	0.100
41.100	2.314	0.100
41.200	17.573	0.100
41.300	10.999	0.099
41.400	14.755	0.099
41.500	22.351	0.099
41.600	25.942	0.099
41.700	25.664	0.100
41.800	9.048	0.099
41.900	8.052	0.099
42.000	16.369	0.099
42.100	23.110	0.099
42.200	18.440	0.099
42.300	9.099	0.099
42.400	21.163	0.100
42.500	0.089	0.100
42.600	22.328	0.099
42.700	8.325	0.099
42.800	9.327	0.099
42.900	4.197	0.099
43.000	5.607	0.099
43.100	4.005	0.099
43.200	3.568	0.100
43.300	20.903	0.099
43.400	-6.364	0.100
43.500	10.395	0.099
43.600	20.066	0.099
43.700	20.792	0.099
43.800	13.821	0.100
43.900	-0.942	0.099
44.000	6.313	0.100
44.100	4.931	0.100
44.200	19.621	0.100
44.300	5.127	0.100
44.400	29.535	0.100
44.500	9.937	0.100
44.600	1.264	0.100
44.700	15.798	0.100
44.800	10.078	0.100
44.900	23.873	0.099
45.000	4.167	0.099
45.100	3.681	0.100
45.200	24.032	0.100
45.300	21.658	0.100
45.400	-5.888	0.100
45.500	-12.469	0.099
45.600	15.555	0.100
45.700	18.419	0.099
45.800	7.652	0.100
45.900	9.564	0.100
46.000	2.366	0.100
46.100	-12.975	0.099
46.200	9.207	0.099
46.300	11.293	0.099
46.400	8.620	0.099
46.500	10.467	0.100
46.600	17.869	0.100
46.700	-7.248	0.100
46.800	4.821	0.099
46.900	13.433	0.100
47.000	19.177	0.100
47.100	1.965	0.099
47.200	11.892	0.099
47.300	24.425	0.100
47.400	8.875	0.100
47.500	-10.100	0.100
47.600	31.777	0.100
47.700	-3.039	0.100
47.800	20.954	0.099
47.900	2.342	0.099
48.000	0.955	0.099
48.100	19.209	0.099
48.200	8.395	0.099
48.300	5.092	0.099
48.400	19.143	0.100
48.500	11.710	0.100
48.600	-4.479	0.100
48.700	7.733	0.099
48.800	16.032	0.100
48.900	13.175	0.100
49.000	12.265	0.099
49.100	6.310	0.100
49.200	-2.372	0.099
49.300	6.382	0.099
49.400	18.826	0.099
49.500	17.736	0.100
49.600	-0.148	0.099
49.700	14.910	0.099
49.800	-21.807	0.099
49.900	15.372	0.100
50.000	7.418	0.099
50.100	6.325	0.099
50.200	30.142	0.099
50.300	0.381	0.100
50.400	16.123	0.099
50.500	10.953	0.099
50.600	20.394	0.099
50.700	8.754	0.099
50.800	10.282	0.099
50.900	12.172	0.099
51.000	-4.718	0.099
51.100	18.389	0.100
51.200	8.029	0.100
51.300	2.549	0.100
51.400	11.676	0.099
51.500	6.975	0.099
51.600	9.235	0.099
51.700	-1.173	0.099
51.800	24.859	0.099
51.900	19.491	0.099
52.000	14.378	0.099
52.100	11.913	0.099
52.200	0.785	0.099
52.300	6.911	0.099
52.400	26.277	0.099
52.500	3.897	0.099
52.600	38.140	0.100
52.700	0.238	0.099
52.800	10.508	0.099
52.900	12.900	0.100
53.000	12.884	0.099
53.100	20.090	0.099
53.200	13.600	0.099
53.300	17.517	0.099
53.400	6.861	0.100
53.500	24.163	0.099
53.600	25.083	0.100
53.700	19.604	0.099
53.800	23.247	0.099
53.900	23.780	0.099
54.000	26.897	0.099
54.100	-2.213	0.099
54.200	27.389	0.100
54.300	1.017	0.099
54.400	22.510	0.099
54.500	-1.961	0.100
54.600	6.357	0.099
54.700	4.321	0.099
54.800	14.623	0.099
54.900	24.804	0.100
55.000	12.248	0.100
55.100	6.057	0.099
55.200	12.924	0.099
55.300	16.334	0.100
55.400	21.411	0.099
55.500	24.149	0.100
55.600	7.008	0.100
55.700	20.454	0.099
55.800	11.824	0.099
55.900	20.741	0.099
56.000	29.694	0.099
56.100	13.146	0.099
56.200	24.519	0.100
56.300	3.879	0.100
56.400	14.893	0.100
56.500	23.453	0.100
56.600	21.705	0.100
56.700	19.879	0.099
56.800	27.178	0.099
56.900	26.237	0.099
57.000	1.401	0.100
57.100	11.794	0.100
57.200	16.313	0.099
57.300	24.349	0.100
57.400	-2.940	0.099
57.500	31.128	0.099
57.600	17.029	0.100
57.700	10.580	0.099
57.800	6.975	0.099
57.900	33.202	0.099
58.000	15.294	0.099
58.100	-3.810	0.100
58.200	-6.638	0.099
58.300	35.430	0.099
58.400	5.724	0.099
58.500	28.739	0.099
58.600	11.419	0.100
58.700	32.396	0.100
58.800	13.670	0.099
58.900	5.391	0.099
59.000	17.642	0.099
59.100	24.059	0.099
59.200	19.927	0.099
59.300	17.248	0.099
59.400	20.210	0.099
59.500	27.700	0.099
59.600	17.263	0.099
59.700	3.908	0.100
59.800	21.789	0.100
59.900	1.680	0.099
60.000	12.901	0.099
60.100	23.430	0.099
60.200	4.370	0.099
60.300	15.718	0.099
60.400	19.118	0.099
60.500	22.458	0.099
60.600	21.406	0.100
60.700	18.562	0.099
60.800	12.487	0.099
60.900	10.976	0.099
61.000	22.233	0.099
61.100	20.796	0.099
61.200	30.267	0.099
61.300	21.861	0.099
61.400	10.262	0.099
61.500	0.153	0.099
61.600	29.846	0.099
61.700	11.447	0.099
61.800	23.379	0.099
61.900	31.318	0.099
62.000	13.560	0.099
62.100	-11.403	0.099
62.200	15.196	0.099
62.300	30.167	0.099
62.400	20.235	0.099
62.500	20.973	0.099
62.600	30.310	0.099
62.700	15.053	0.100
62.800	24.888	0.100
62.900	28.738	0.099
63.000	5.267	0.100
63.100	22.405	0.100
63.200	7.241	0.099
63.300	24.332	0.100
63.400	3.171	0.100
63.500	21.094	0.100
63.600	-6.995	0.100
63.700	19.293	0.100
63.800	13.114	0.099
63.900	24.129	0.099
64.000	16.565	0.099
64.100	21.176	0.099
64.200	10.878	0.099
64.300	-1.214	0.099
64.400	12.451	0.099
64.500	8.544	0.099
64.600	28.895	0.099
64.700	15.645	0.100
64.800	15.967	0.100
64.900	9.393	0.099
65.000	17.902	0.100
65.100	23.453	0.100
65.200	31.021	0.100
65.300	19.804	0.099
65.400	1.584	0.100
65.500	11.900	0.099
65.600	19.875	0.099
65.700	0.905	0.099
65.800	24.822	0.100
65.900	19.963	0.100
66.000	22.753	0.099
66.100	31.977	0.100
66.200	2.719	0.099
66.300	20.153	0.099
66.400	17.536	0.100
66.500	-1.771	0.099
66.600	4.704	0.100
66.700	33.370	0.100
66.800	20.275	0.099
66.900	5.025	0.099
67.000	39.316	0.100
67.100	14.502	0.100
67.200	35.288	0.099
67.300	27.594	0.099
67.400	-12.479	0.100
67.500	42.451	0.100
67.600	-2.547	0.099
67.700	19.927	0.099
67.800	11.445	0.100
67.900	33.078	0.100
68.000	17.147	0.099
68.100	22.585	0.100
68.200	17.298	0.099
68.300	25.927	0.100
68.400	17.724	0.100
68.500	0.353	0.099
68.600	30.394	0.099
68.700	18.091	0.100
68.800	17.487	0.100
68.900	25.470	0.100
69.000	17.605	0.100
69.100	25.822	0.099
69.200	8.212	0.100
69.300	24.490	0.100
69.400	8.313	0.100
69.500	26.599	0.100
69.600	35.050	0.100
69.700	18.518	0.100
69.800	23.524	0.100
69.900	13.834	0.100
70.000	23.198	0.100
70.100	21.821	0.099
70.200	2.020	0.099
70.300	27.862	0.100
70.400	16.254	0.099
70.500	5.768	0.100
70.600	7.328	0.099
70.700	29.439	0.100
70.800	17.230	0.100
70.900	16.638	0.099
71.000	15.945	0.099
71.100	28.235	0.099
71.200	9.531	0.100
71.300	3.518	0.100
71.400	17.393	0.099
71.500	19.501	0.100
71.600	22.253	0.100
71.700	29.738	0.100
71.800	2.115	0.100
71.900	6.986	0.100
72.000	26.050	0.099
72.100	7.089	0.100
72.200	23.455	0.099
72.300	14.869	0.100
72.400	26.420	0.099
72.500	18.751	0.100
72.600	10.546	0.100
72.700	30.481	0.099
72.800	31.603	0.100
72.900	33.563	0.099
73.000	17.108	0.100
73.100	12.028	0.100
73.200	13.886	0.100
73.300	15.893	0.100
73.400	19.958	0.100
73.500	14.643	0.100
73.600	12.944	0.100
73.700	6.142	0.099
73.800	27.018	0.100
73.900	13.539	0.100
74.000	11.668	0.099
74.100	15.011	0.099
74.200	16.607	0.100
74.300	22.244	0.100
74.400	23.580	0.099
74.500	31.908	0.099
74.600	17.171	0.100
74.700	25.627	0.100
74.800	19.446	0.100
74.900	13.095	0.100
75.000	1.432	0.099
75.100	14.742	0.099
75.200	15.400	0.099
75.300	23.925	0.100
75.400	28.085	0.100
75.500	18.154	0.100
75.600	18.538	0.099
75.700	22.580	0.099
75.800	13.248	0.100
75.900	13.002	0.100
76.000	30.513	0.099
76.100	24.107	0.100
76.200	27.848	0.099
76.300	29.896	0.099
76.400	18.328	0.100
76.500	20.513	0.099
76.600	25.212	0.099
76.700	-4.038	0.099
76.800	10.531	0.099
76.900	44.491	0.100
77.000	7.584	0.100
77.100	17.457	0.100
77.200	15.057	0.099
77.300	4.796	0.099
77.400	27.670	0.099
77.500	30.605	0.100
77.600	33.624	0.099
77.700	14.659	0.099
77.800	27.909	0.099
77.900	28.797	0.100
78.000	14.180	0.099
78.100	9.910	0.099
78.200	27.396	0.100
78.300	25.260	0.100
78.400	-4.877	0.099
78.500	26.095	0.100
78.600	21.469	0.099
78.700	12.908	0.100
78.800	26.848	0.100
78.900	24.600	0.100
79.000	23.972	0.099
79.100	4.383	0.100
79.200	34.664	0.100
79.300	16.585	0.100
79.400	15.768	0.099
79.500	30.600	0.100
79.600	20.526	0.100
79.700	24.475	0.100
79.800	15.363	0.100
79.900	-6.089	0.099
80.000	21.737	0.099
80.100	20.973	0.099
80.200	26.565	0.100
80.300	20.460	0.099
80.400	-2.243	0.100
80.500	16.733	0.099
80.600	16.940	0.100
80.700	5.029	0.099
80.800	10.431	0.099
80.900	26.151	0.100
81.000	16.938	0.099
81.100	16.198	0.100
81.200	12.535	0.100
81.300	19.245	0.100
81.400	31.594	0.099
81.500	37.435	0.099
81.600	6.756	0.100
81.700	12.760	0.099
81.800	20.453	0.100
81.900	20.897	0.100
82.000	-2.963	0.099
82.100	21.715	0.100
82.200	30.963	0.099
82.300	20.190	0.100
82.400	17.781	0.099
82.500	21.067	0.100
82.600	29.899	0.099
82.700	13.560	0.099
82.800	22.066	0.100
82.900	17.867	0.100
83.000	31.305	0.100
83.100	21.947	0.099
83.200	12.838	0.100
83.300	18.655	0.099
83.400	26.177	0.100
83.500	7.049	0.099
83.600	10.190	0.099
83.700	35.157	0.099
83.800	33.161	0.100
83.900	20.214	0.099
84.000	12.326	0.100
84.100	18.153	0.100
84.200	14.000	0.100
84.300	5.776	0.100
84.400	36.032	0.100
84.500	24.486	0.100
84.600	25.372	0.099
84.700	25.917	0.100
84.800	18.635	0.100
84.900	35.465	0.099
85.000	28.029	0.099
85.100	23.599	0.099
85.200	19.749	0.100
85.300	25.601	0.100
85.400	33.388	0.100
85.500	17.804	0.100
85.600	11.862	0.099
85.700	27.140	0.100
85.800	22.894	0.100
85.900	21.484	0.100
86.000	14.038	0.100
86.100	21.773	0.100
86.200	31.348	0.100
86.300	16.713	0.099
86.400	8.816	0.100
86.500	29.073	0.099
86.600	27.033	0.100
86.700	25.499	0.099
86.800	24.895	0.099
86.900	17.739	0.099
87.000	14.349	0.100
87.100	26.711	0.099
87.200	19.746	0.099
87.300	24.574	0.100
87.400	18.018	0.099
87.500	23.912	0.100
87.600	4.822	0.100
87.700	14.215	0.099
87.800	33.051	0.100
87.900	27.231	0.100
88.000	24.255	0.099
88.100	16.889	0.099
88.200	24.248	0.100
88.300	15.480	0.100
88.400	31.564	0.100
88.500	33.628	0.099
88.600	-0.562	0.099
88.700	13.568	0.099
88.800	0.662	0.099
88.900	46.848	0.099
89.000	19.780	0.099
89.100	4.419	0.100
89.200	19.496	0.099
89.300	-4.740	0.099
89.400	46.588	0.100
89.500	13.693	0.099
89.600	18.179	0.099
89.700	31.952	0.100
89.800	21.232	0.099
89.900	25.459	0.099
90.000	47.805	0.099
90.100	15.319	0.099
90.200	33.028	0.099
90.300	6.637	0.100
90.400	20.361	0.099
90.500	5.485	0.099
90.600	12.816	0.099
90.700	25.835	0.099
90.800	5.260	0.099
90.900	-4.766	0.099
91.000	15.884	0.099
91.100	16.998	0.100
91.200	-1.633	0.099
91.300	-4.766	0.100
91.400	-6.121	0.099
91.500	3.775	0.099
91.600	-13.051	0.099
91.700	-6.087	0.099
91.800	0.947	0.099
91.900	-33.069	0.099
92.000	5.052	0.099
92.100	6.858	0.099
92.200	-21.938	0.100
92.300	-6.862	0.100
92.400	-13.043	0.099
92.500	-19.338	0.099
92.600	-19.551	0.099
92.700	-4.258	0.099
92.800	-18.928	0.099
92.900	-9.752	0.099
93.000	-1.473	0.100
93.100	-5.950	0.099
93.200	-18.521	0.099
93.300	-36.329	0.099
93.400	-10.891	0.100
93.500	-7.263	0.099
93.600	1.538	0.100
93.700	-16.373	0.099
93.800	-12.149	0.099
93.900	-6.942	0.099
94.000	-31.998	0.099
94.100	-25.967	0.099
94.200	11.786	0.100
94.300	-6.659	0.099
94.400	-7.023	0.100
94.500	-17.540	0.099
94.600	-13.743	0.100
94.700	-19.995	0.099
94.800	-14.404	0.099
94.900	-12.883	0.100
95.000	-19.445	0.099
95.100	-1.010	0.100
95.200	-20.662	0.100
95.300	-38.557	0.100
95.400	-10.406	0.100
95.500	-16.999	0.100
95.600	-9.264	0.099
95.700	-26.622	0.100
95.800	-27.209	0.099
95.900	-16.238	0.100
