time /s	I /nA	
0.100	14.824	
0.200	1.737	
0.300	-6.786	
0.400	-10.434	
0.500	-3.475	
0.600	5.907	
0.700	-13.041	
0.800	-11.663	
0.900	6.903	
1.000	-13.606	
1.100	0.273	
1.200	-6.534	
1.300	-16.911	
1.400	8.288	
1.500	-13.927	
1.600	-1.329	
1.700	-6.620	
1.800	-6.466	
1.900	4.370	
2.000	-11.569	
2.100	-7.639	
2.200	-0.648	
2.300	-0.405	
2.400	0.810	
2.500	-6.080	
2.600	-9.843	
2.700	-7.572	
2.800	-6.564	
2.900	-1.904	
3.000	-10.254	
3.100	0.911	
3.200	0.847	
3.300	-13.191	
3.400	8.968	
3.500	-0.017	
3.600	-8.868	
3.700	-2.996	
3.800	-6.779	
3.900	-13.567	
4.000	4.098	
4.100	-6.906	
4.200	-10.150	
4.300	-2.698	
4.400	-2.306	
4.500	-16.432	
4.600	-14.968	
4.700	-5.674	
4.800	6.495	
4.900	-5.441	
5.000	-6.814	
5.100	-5.224	
5.200	-0.919	
5.300	-2.770	
5.400	-4.907	
5.500	3.613	
5.600	2.026	
5.700	-10.236	
5.800	-4.520	
5.900	-22.494	
6.000	1.286	
6.100	2.160	
6.200	-0.721	
6.300	-12.140	
6.400	-12.279	
6.500	0.361	
6.600	-4.165	
6.700	-12.356	
6.800	-8.157	
6.900	2.875	
7.000	4.639	
7.100	-7.105	
7.200	-28.449	
7.300	0.694	
7.400	-8.182	
7.500	-4.136	
7.600	-3.189	
7.700	-8.085	
7.800	3.333	
7.900	-9.839	
8.000	-3.531	
8.100	-6.335	
8.200	-1.953	
8.300	-3.733	
8.400	-5.907	
8.500	-5.719	
8.600	-13.137	
8.700	-5.283	
8.800	-2.558	
8.900	-5.443	
9.000	-5.673	
9.100	-4.975	
9.200	-21.597	
9.300	-11.098	
9.400	-7.028	
9.500	1.865	
9.600	1.131	
9.700	-15.454	
9.800	-5.915	
9.900	7.246	
10.000	-18.344	
10.100	-18.583	
10.200	-1.610	
10.300	12.235	
10.400	-13.742	
10.500	-13.098	
10.600	-8.116	
10.700	-8.960	
10.800	-17.569	
10.900	-2.509	
11.000	2.836	
11.100	-5.028	
11.200	-8.992	
11.300	-0.257	
11.400	0.374	
11.500	-1.648	
11.600	-2.114	
11.700	-12.202	
11.800	-7.817	
11.900	-0.518	
12.000	3.439	
12.100	-20.490	
12.200	9.608	
12.300	-3.631	
12.400	-5.330	
12.500	-2.320	
12.600	-9.940	
12.700	-18.608	
12.800	-4.123	
12.900	-4.824	
13.000	-8.960	
13.100	-6.353	
13.200	-2.392	
13.300	-0.739	
13.400	-17.526	
13.500	-8.679	
13.600	-8.640	
13.700	-0.509	
13.800	0.014	
13.900	-18.878	
14.000	-11.727	
14.100	-5.708	
14.200	-6.237	
14.300	0.131	
14.400	-10.612	
14.500	-3.247	
14.600	-0.206	
14.700	-9.491	
14.800	0.192	
14.900	-8.626	
15.000	0.406	
15.100	-6.193	
15.200	-2.465	
15.300	-3.418	
15.400	-12.523	
15.500	-14.058	
15.600	-4.703	
15.700	2.318	
15.800	-8.533	
15.900	-6.633	
16.000	3.032	
16.100	-3.346	
16.200	5.433	
16.300	-2.008	
16.400	8.319	
16.500	-7.733	
16.600	-3.314	
16.700	-9.646	
16.800	6.976	
16.900	-12.921	
17.000	-4.685	
17.100	-0.186	
17.200	5.221	
17.300	0.710	
17.400	-0.068	
17.500	-7.437	
17.600	-0.035	
17.700	-0.541	
17.800	-2.004	
17.900	-4.456	
18.000	-11.018	
18.100	-16.945	
18.200	-7.973	
18.300	-12.743	
18.400	-14.327	
18.500	-3.809	
18.600	-9.413	
18.700	-8.604	
18.800	-8.562	
18.900	-8.690	
19.000	-8.131	
19.100	-4.300	
19.200	-1.623	
19.300	-4.656	
19.400	-11.245	
19.500	-18.488	
19.600	-4.526	
19.700	4.397	
19.800	-8.001	
19.900	4.166	
20.000	-7.183	
20.100	4.866	
20.200	-6.390	
20.300	7.285	
20.400	-21.150	
20.500	2.329	
20.600	-1.721	
20.700	-10.506	
20.800	-6.491	
20.900	4.861	
21.000	-5.001	
21.100	-4.770	
21.200	2.167	
21.300	-8.441	
21.400	-8.345	
21.500	10.285	
21.600	-7.698	
21.700	6.653	
21.800	-5.388	
21.900	-4.884	
22.000	-6.884	
22.100	4.985	
22.200	-9.002	
22.300	-5.079	
22.400	-8.243	
22.500	7.766	
22.600	-18.278	
22.700	-8.223	
22.800	25.710	
22.900	-10.425	
23.000	-7.521	
23.100	1.234	
23.200	2.853	
23.300	4.539	
23.400	-15.691	
23.500	-6.210	
23.600	-2.701	
23.700	-15.057	
23.800	-14.689	
23.900	-11.419	
24.000	-1.255	
24.100	6.545	
24.200	-0.279	
24.300	14.571	
24.400	-5.068	
24.500	-8.454	
24.600	1.945	
24.700	-5.186	
24.800	-6.706	
24.900	-14.061	
25.000	3.598	
25.100	2.661	
25.200	-8.204	
25.300	-9.934	
25.400	0.037	
25.500	-7.835	
25.600	-0.597	
25.700	-5.536	
25.800	-2.427	
25.900	-6.567	
26.000	-14.493	
26.100	-9.959	
26.200	-1.315	
26.300	1.267	
26.400	10.476	
26.500	-11.753	
26.600	-18.711	
26.700	-1.305	
26.800	-16.038	
26.900	-0.509	
27.000	-12.022	
27.100	-5.079	
27.200	-5.224	
27.300	-1.589	
27.400	-2.860	
27.500	-8.070	
27.600	3.884	
27.700	-2.549	
27.800	2.896	
27.900	-7.027	
28.000	-6.241	
28.100	-5.601	
28.200	-5.940	
28.300	-0.130	
28.400	-14.063	
28.500	3.847	
28.600	-11.982	
28.700	-18.725	
28.800	-10.337	
28.900	-3.466	
29.000	-8.010	
29.100	-1.003	
29.200	-14.926	
29.300	-6.713	
29.400	-4.904	
29.500	8.811	
29.600	-11.011	
29.700	-1.905	
29.800	1.472	
29.900	6.683	
30.000	4.150	
30.100	9.738	
30.200	19.416	
30.300	18.812	
30.400	12.616	
30.500	15.895	
30.600	36.992	
30.700	20.489	
30.800	36.822	
30.900	34.113	
31.000	42.300	
31.100	36.572	
31.200	46.254	
31.300	33.519	
31.400	50.762	
31.500	49.520	
31.600	30.225	
31.700	40.878	
31.800	28.008	
31.900	42.501	
32.000	36.873	
32.100	43.444	
32.200	41.307	
32.300	44.830	
32.400	37.066	
32.500	26.726	
32.600	44.189	
32.700	42.665	
32.800	29.394	
32.900	33.728	
33.000	37.962	
33.100	29.536	
33.200	40.590	
33.300	36.498	
33.400	18.847	
33.500	20.314	
33.600	26.644	
33.700	29.520	
33.800	22.191	
33.900	51.269	
34.000	19.028	
34.100	27.767	
34.200	34.243	
34.300	29.654	
34.400	17.674	
34.500	27.444	
34.600	33.017	
34.700	26.070	
34.800	35.154	
34.900	13.426	
35.000	42.601	
35.100	24.247	
35.200	13.812	
35.300	27.635	
35.400	33.203	
35.500	22.356	
35.600	30.080	
35.700	30.395	
35.800	25.654	
35.900	10.764	
36.000	40.579	
36.100	28.982	
36.200	33.808	
36.300	39.575	
36.400	22.684	
36.500	40.377	
36.600	33.033	
36.700	17.150	
36.800	18.452	
36.900	40.201	
37.000	18.758	
37.100	38.954	
37.200	26.610	
37.300	35.337	
37.400	27.608	
37.500	44.780	
37.600	30.982	
37.700	37.927	
37.800	29.738	
37.900	28.992	
38.000	41.107	
38.100	39.520	
38.200	33.364	
38.300	20.421	
38.400	21.227	
38.500	45.700	
38.600	33.907	
38.700	58.439	
38.800	41.871	
38.900	37.690	
39.000	41.540	
39.100	26.999	
39.200	38.996	
39.300	26.782	
39.400	43.002	
39.500	37.061	
39.600	43.427	
39.700	44.535	
39.800	27.292	
39.900	46.188	
40.000	32.414	
40.100	37.784	
40.200	40.423	
40.300	30.632	
40.400	60.378	
40.500	42.310	
40.600	48.867	
40.700	39.143	
40.800	26.429	
40.900	49.850	
41.000	55.136	
41.100	38.982	
41.200	30.263	
41.300	41.526	
41.400	42.469	
41.500	46.059	
41.600	44.797	
41.700	35.895	
41.800	54.197	
41.900	34.899	
42.000	41.258	
42.100	64.299	
42.200	28.768	
42.300	53.398	
42.400	37.336	
42.500	42.847	
42.600	53.367	
42.700	36.995	
42.800	60.247	
42.900	39.941	
43.000	42.513	
43.100	62.678	
43.200	36.966	
43.300	37.098	
43.400	48.621	
43.500	48.152	
43.600	46.951	
43.700	48.680	
43.800	24.119	
43.900	29.290	
44.000	47.005	
44.100	42.058	
44.200	44.482	
44.300	40.448	
44.400	35.556	
44.500	54.034	
44.600	52.426	
44.700	43.385	
44.800	35.677	
44.900	52.982	
45.000	57.565	
45.100	49.058	
45.200	46.385	
45.300	40.514	
45.400	58.201	
45.500	43.791	
45.600	48.819	
45.700	43.800	
45.800	48.337	
45.900	48.176	
46.000	53.537	
46.100	40.738	
46.200	50.312	
46.300	50.245	
46.400	50.649	
46.500	55.681	
46.600	37.401	
46.700	49.833	
46.800	49.028	
46.900	50.826	
47.000	38.518	
47.100	42.277	
47.200	53.626	
47.300	40.029	
47.400	41.616	
47.500	43.019	
47.600	39.692	
47.700	52.030	
47.800	70.305	
47.900	36.612	
48.000	37.253	
48.100	51.796	
48.200	43.205	
48.300	50.932	
48.400	49.411	
48.500	48.338	
48.600	39.214	
48.700	56.458	
48.800	39.423	
48.900	37.684	
49.000	39.877	
49.100	44.822	
49.200	57.065	
49.300	49.705	
49.400	36.457	
49.500	38.677	
49.600	35.600	
49.700	58.289	
49.800	52.222	
49.900	48.964	
50.000	43.139	
50.100	35.039	
50.200	50.921	
50.300	44.038	
50.400	45.156	
50.500	36.954	
50.600	51.034	
50.700	50.556	
50.800	44.449	
50.900	51.929	
51.000	43.725	
51.100	41.706	
51.200	31.326	
51.300	35.889	
51.400	45.835	
51.500	32.095	
51.600	37.103	
51.700	42.304	
51.800	53.685	
51.900	35.743	
52.000	51.977	
52.100	53.918	
52.200	45.007	
52.300	39.390	
52.400	44.982	
52.500	38.508	
52.600	37.775	
52.700	48.483	
52.800	37.859	
52.900	55.376	
53.000	44.751	
53.100	44.827	
53.200	58.252	
53.300	46.942	
53.400	46.950	
53.500	47.903	
53.600	48.479	
53.700	26.769	
53.800	41.557	
53.900	45.819	
54.000	45.985	
54.100	41.568	
54.200	32.880	
54.300	44.398	
54.400	30.186	
54.500	59.051	
54.600	43.993	
54.700	39.010	
54.800	37.022	
54.900	43.284	
55.000	49.295	
55.100	43.200	
55.200	38.236	
55.300	34.424	
55.400	40.968	
55.500	57.079	
55.600	35.549	
55.700	36.674	
55.800	37.950	
55.900	28.839	
56.000	44.590	
56.100	43.765	
56.200	45.103	
56.300	32.710	
56.400	37.596	
56.500	42.950	
56.600	41.249	
56.700	41.626	
56.800	43.460	
56.900	43.581	
57.000	66.897	
57.100	38.884	
57.200	26.822	
57.300	58.687	
57.400	43.955	
57.500	40.509	
57.600	36.807	
57.700	50.042	
57.800	30.946	
57.900	45.260	
58.000	41.835	
58.100	54.822	
58.200	52.298	
58.300	38.156	
58.400	42.226	
58.500	41.361	
58.600	45.685	
58.700	43.801	
58.800	49.341	
58.900	36.595	
59.000	55.165	
59.100	40.638	
59.200	45.592	
59.300	48.830	
59.400	39.596	
59.500	38.268	
59.600	35.988	
59.700	38.207	
59.800	30.566	
59.900	48.713	
60.000	33.387	
60.100	53.099	
60.200	35.577	
60.300	33.345	
60.400	46.515	
60.500	31.832	
60.600	38.526	
60.700	36.969	
60.800	24.969	
60.900	52.874	
61.000	28.846	
61.100	41.906	
61.200	34.148	
61.300	42.816	
61.400	34.809	
61.500	42.403	
61.600	51.622	
61.700	34.488	
61.800	47.011	
61.900	41.419	
62.000	37.642	
62.100	45.541	
62.200	40.133	
62.300	50.093	
62.400	32.892	
62.500	25.123	
62.600	38.257	
62.700	45.934	
62.800	40.213	
62.900	43.541	
63.000	44.017	
63.100	38.724	
63.200	51.410	
63.300	14.933	
63.400	44.002	
63.500	65.067	
63.600	28.465	
63.700	40.129	
63.800	43.302	
63.900	44.651	
64.000	36.557	
64.100	39.338	
64.200	46.808	
64.300	31.649	
64.400	46.536	
64.500	48.171	
64.600	35.305	
64.700	44.080	
64.800	36.602	
64.900	46.777	
65.000	36.814	
65.100	44.206	
65.200	45.708	
65.300	44.705	
65.400	37.988	
65.500	45.947	
65.600	44.992	
65.700	49.852	
65.800	47.464	
65.900	29.900	
66.000	44.928	
66.100	35.623	
66.200	39.489	
66.300	52.245	
66.400	50.619	
66.500	25.868	
66.600	32.936	
66.700	29.158	
66.800	46.600	
66.900	41.680	
67.000	33.245	
67.100	42.932	
67.200	42.233	
67.300	46.521	
67.400	43.320	
67.500	30.342	
67.600	35.504	
67.700	36.988	
67.800	35.258	
67.900	30.719	
68.000	36.565	
68.100	35.375	
68.200	52.722	
68.300	41.227	
68.400	44.145	
68.500	46.788	
68.600	58.255	
68.700	24.918	
68.800	38.064	
68.900	19.262	
69.000	47.658	
69.100	48.204	
69.200	50.160	
69.300	26.516	
69.400	41.593	
69.500	38.470	
69.600	38.885	
69.700	38.557	
69.800	46.522	
69.900	47.117	
70.000	47.322	
70.100	41.952	
70.200	44.354	
70.300	37.102	
70.400	33.531	
70.500	44.571	
70.600	48.987	
70.700	35.176	
70.800	45.143	
70.900	34.715	
71.000	36.736	
71.100	43.413	
71.200	43.367	
71.300	53.196	
71.400	40.943	
71.500	37.759	
71.600	36.457	
71.700	39.976	
71.800	43.808	
71.900	30.298	
72.000	37.939	
72.100	44.298	
72.200	50.128	
72.300	36.332	
72.400	47.520	
72.500	47.786	
72.600	43.795	
72.700	26.034	
72.800	48.832	
72.900	57.920	
73.000	43.701	
73.100	36.291	
73.200	36.730	
73.300	46.936	
73.400	37.578	
73.500	46.083	
73.600	60.179	
73.700	39.572	
73.800	45.898	
73.900	41.226	
74.000	14.612	
74.100	50.148	
74.200	48.099	
74.300	33.525	
74.400	31.147	
74.500	54.441	
74.600	30.443	
74.700	45.007	
74.800	45.455	
74.900	26.854	
75.000	43.891	
75.100	37.952	
75.200	44.489	
75.300	37.877	
75.400	67.148	
75.500	22.819	
75.600	46.286	
75.700	38.755	
75.800	42.131	
75.900	40.712	
76.000	31.248	
76.100	46.398	
76.200	31.092	
76.300	40.515	
76.400	41.398	
76.500	41.907	
76.600	43.578	
76.700	50.213	
76.800	45.825	
76.900	48.991	
77.000	37.534	
77.100	44.516	
77.200	39.622	
77.300	49.263	
77.400	37.243	
77.500	45.420	
77.600	39.532	
77.700	48.412	
77.800	28.823	
77.900	53.491	
78.000	47.749	
78.100	46.369	
78.200	37.467	
78.300	31.831	
78.400	46.141	
78.500	38.137	
78.600	35.763	
78.700	42.572	
78.800	41.341	
78.900	31.221	
79.000	32.670	
79.100	38.863	
79.200	32.892	
79.300	34.074	
79.400	51.544	
79.500	44.919	
79.600	48.084	
79.700	47.045	
79.800	33.847	
79.900	36.286	
80.000	45.131	
80.100	38.642	
80.200	47.842	
80.300	46.211	
80.400	43.520	
80.500	37.377	
80.600	50.928	
80.700	39.598	
80.800	42.723	
80.900	43.485	
81.000	46.985	
81.100	38.234	
81.200	29.221	
81.300	47.061	
81.400	46.531	
81.500	43.622	
81.600	53.745	
81.700	38.560	
81.800	42.421	
81.900	43.655	
82.000	38.460	
82.100	39.971	
82.200	38.168	
82.300	38.715	
82.400	44.235	
82.500	41.948	
82.600	32.669	
82.700	49.015	
82.800	43.922	
82.900	45.276	
83.000	50.894	
83.100	32.215	
83.200	46.538	
83.300	52.571	
83.400	37.883	
83.500	32.356	
83.600	36.410	
83.700	38.752	
83.800	47.318	
83.900	51.997	
84.000	42.095	
84.100	51.139	
84.200	42.522	
84.300	42.222	
84.400	40.009	
84.500	49.097	
84.600	58.106	
84.700	29.919	
84.800	54.626	
84.900	45.483	
85.000	45.825	
85.100	43.519	
85.200	42.177	
85.300	50.202	
85.400	48.309	
85.500	41.708	
85.600	40.278	
85.700	48.784	
85.800	45.019	
85.900	35.909	
86.000	42.127	
86.100	26.081	
86.200	56.614	
86.300	43.229	
86.400	38.321	
86.500	45.756	
86.600	40.432	
86.700	49.569	
86.800	39.936	
86.900	44.855	
87.000	50.730	
87.100	42.802	
87.200	43.045	
87.300	49.145	
87.400	43.709	
87.500	40.720	
87.600	47.914	
87.700	57.827	
87.800	44.023	
87.900	32.782	
88.000	64.805	
88.100	53.754	
88.200	49.619	
88.300	39.202	
88.400	47.391	
88.500	47.107	
88.600	44.660	
88.700	34.884	
88.800	36.502	
88.900	42.329	
89.000	28.399	
89.100	23.682	
89.200	37.763	
89.300	58.868	
89.400	48.383	
89.500	52.547	
89.600	40.941	
89.700	43.173	
89.800	45.157	
89.900	30.376	
90.000	38.697	
90.100	49.919	
90.200	49.055	
90.300	39.934	
90.400	34.736	
90.500	32.073	
90.600	19.126	
90.700	25.668	
90.800	4.583	
90.900	2.217	
91.000	3.291	
91.100	-1.434	
91.200	-4.337	
91.300	12.390	
91.400	4.457	
91.500	-3.200	
91.600	-4.328	
91.700	-14.960	
91.800	-20.671	
91.900	-13.120	
92.000	-21.771	
92.100	-23.670	
92.200	-31.621	
92.300	-29.657	
92.400	-32.940	
92.500	-30.013	
92.600	-17.918	
92.700	-42.717	
92.800	-35.350	
92.900	-38.630	
93.000	-38.574	
93.100	-36.604	
93.200	-24.829	
93.300	-48.316	
93.400	-38.392	
93.500	-32.963	
93.600	-36.273	
93.700	-36.907	
93.800	-48.000	
93.900	-24.384	
94.000	-39.219	
94.100	-46.529	
94.200	-27.345	
94.300	-26.808	
94.400	-48.231	
94.500	-53.669	
94.600	-40.353	
94.700	-32.373	
94.800	-28.235	
94.900	-38.502	
95.000	-41.811	
95.100	-44.526	
95.200	-37.443	
95.300	-45.545	
95.400	-38.993	
95.500	-41.065	
95.600	-31.902	
95.700	-37.683	
95.800	-30.743	
95.900	-23.730	
96.000	-37.077	
96.100	-34.823	
96.200	-34.082	
96.300	-47.565	
96.400	-36.939	
96.500	-29.624	
96.600	-22.805	
96.700	-20.557	
96.800	-38.312	
96.900	-30.952	
97.000	-40.949	
97.100	-15.853	
97.200	-15.101	
97.300	-24.285	
97.400	-18.950	
97.500	-16.623	
97.600	-31.658	
97.700	-24.745	
97.800	-15.940	
97.900	-25.712	
98.000	-32.044	
98.100	-29.786	
98.200	-21.201	
98.300	-27.263	
98.400	-34.441	
98.500	-6.410	
98.600	-21.750	
98.700	-31.374	
98.800	-21.849	
98.900	-23.470	
99.000	-18.019	
99.100	-29.148	
99.200	-22.194	
99.300	-23.088	
99.400	-30.945	
99.500	-14.676	
99.600	-27.545	
99.700	-15.649	
99.800	-11.626	
99.900	-42.027	
100.000	-16.994	
100.100	-22.329	
100.200	-18.526	
100.300	-20.056	
100.400	-20.296	
100.500	-12.706	
100.600	-34.179	
100.700	-17.213	
100.800	-18.756	
100.900	-27.903	
101.000	-10.825	
101.100	-15.011	
101.200	-17.397	
101.300	-19.589	
101.400	-30.301	
101.500	-19.974	
101.600	-21.420	
101.700	-13.965	
101.800	-13.660	
101.900	-14.890	
102.000	-17.960	
102.100	-21.808	
102.200	-22.066	
102.300	-12.029	
102.400	-21.990	
102.500	-24.883	
102.600	-18.615	
102.700	-18.076	
102.800	-24.521	
102.900	-12.468	
103.000	-18.556	
103.100	-33.018	
103.200	-34.681	
103.300	-14.082	
103.400	-7.847	
103.500	-19.944	
103.600	-25.702	
103.700	-14.618	
103.800	-13.933	
103.900	-17.067	
104.000	-20.096	
104.100	-14.874	
104.200	-27.728	
104.300	-13.516	
104.400	-23.058	
104.500	-23.154	
104.600	-16.929	
104.700	-11.259	
104.800	-24.251	
104.900	-21.978	
105.000	-11.548	
105.100	-8.159	
105.200	-23.959	
105.300	-26.280	
105.400	-16.488	
105.500	-33.507	
105.600	-23.944	
105.700	-18.189	
105.800	-12.995	
105.900	-13.927	
106.000	-17.328	
106.100	-14.786	
106.200	-23.809	
106.300	-13.242	
106.400	-32.938	
106.500	-17.578	
106.600	-21.235	
106.700	-19.863	
106.800	-18.824	
106.900	-27.057	
107.000	-18.354	
107.100	-11.771	
107.200	-24.034	
107.300	-22.545	
107.400	-13.897	
107.500	-12.093	
107.600	-18.196	
107.700	-25.121	
107.800	-22.570	
107.900	-16.150	
108.000	-28.711	
108.100	-30.555	
108.200	-2.029	
108.300	-39.445	
108.400	-19.098	
108.500	-15.355	
108.600	-19.890	
108.700	-9.353	
108.800	-18.940	
108.900	-17.333	
109.000	-15.526	
109.100	-18.149	
109.200	-26.166	
109.300	-6.908	
109.400	-12.262	
109.500	-16.655	
109.600	-14.843	
109.700	-31.342	
109.800	-19.460	
109.900	-6.615	
110.000	-23.633	
110.100	-27.044	
110.200	-15.039	
110.300	3.715	
110.400	-16.548	
110.500	-19.737	
110.600	-31.054	
110.700	-28.056	
110.800	-8.991	
110.900	-13.581	
111.000	-20.705	
111.100	-15.565	
111.200	-21.637	
111.300	-28.769	
111.400	-10.641	
111.500	-9.933	
111.600	-19.687	
111.700	-16.911	
111.800	-10.517	
111.900	-10.932	
112.000	-20.404	
112.100	-13.363	
112.200	-16.055	
112.300	-24.971	
112.400	-23.851	
112.500	-20.779	
112.600	-19.317	
112.700	-2.897	
112.800	-11.447	
112.900	-8.344	
113.000	-17.086	
113.100	-24.627	
113.200	-21.683	
113.300	-27.265	
113.400	-3.118	
113.500	-10.834	
113.600	-23.316	
113.700	-19.831	
113.800	-21.593	
113.900	-22.716	
114.000	-14.749	
114.100	-11.207	
114.200	-12.572	
114.300	-18.054	
114.400	-21.664	
114.500	-18.818	
114.600	-24.135	
114.700	-9.077	
114.800	-6.672	
114.900	-13.811	
115.000	-8.981	
115.100	9.479	
115.200	-22.565	
115.300	-21.120	
115.400	-20.294	
115.500	-16.464	
115.600	-5.942	
115.700	-16.809	
115.800	-20.903	
115.900	-26.069	
116.000	1.128	
116.100	-9.470	
116.200	-17.798	
116.300	-12.112	
116.400	-15.066	
116.500	-7.747	
116.600	-26.633	
116.700	-20.823	
116.800	-16.587	
116.900	-6.976	
117.000	-13.594	
117.100	-30.679	
117.200	-7.368	
117.300	-14.237	
117.400	-27.622	
117.500	-13.081	
117.600	-17.112	
117.700	-13.351	
117.800	0.752	
117.900	-24.532	
118.000	-29.960	
118.100	-29.127	
118.200	-7.436	
118.300	-22.142	
118.400	-11.731	
118.500	-14.247	
118.600	-30.775	
118.700	-20.943	
118.800	1.812	
118.900	-10.592	
119.000	-16.796	
119.100	-14.232	
119.200	-9.011	
119.300	-19.381	
119.400	-21.261	
119.500	-13.707	
119.600	-9.885	
119.700	-17.121	
119.800	-16.584	
119.900	-8.256	
120.000	-10.069	
120.100	-16.983	
120.200	-13.253	
120.300	0.139	
120.400	-13.898	
120.500	-7.200	
120.600	-12.281	
120.700	-21.134	
120.800	-18.939	
120.900	-18.758	
121.000	-14.758	
121.100	-14.298	
121.200	-24.863	
121.300	-10.792	
121.400	-24.275	
121.500	-19.243	
121.600	-7.783	
121.700	-16.827	
121.800	-36.040	
121.900	-9.708	
122.000	-16.666	
122.100	-16.287	
122.200	-12.992	
122.300	-4.605	
122.400	-12.862	
