time /s	I /nA	E /V
0.100	-17.320	0.100
0.200	-9.815	0.100
0.300	0.802	0.100
0.400	0.086	0.099
0.500	-23.170	0.100
0.600	-23.697	0.100
0.700	8.250	0.100
0.800	0.114	0.100
0.900	-23.766	0.099
1.000	-10.903	0.100
1.100	-15.223	0.100
1.200	-14.805	0.100
1.300	-12.819	0.100
1.400	-6.103	0.100
1.500	-16.568	0.100
1.600	-5.427	0.099
1.700	-8.684	0.100
1.800	-9.718	0.100
1.900	-26.144	0.099
2.000	-13.157	0.100
2.100	-9.560	0.100
2.200	-14.136	0.100
2.300	-16.310	0.099
2.400	-20.415	0.100
2.500	-17.286	0.100
2.600	-11.598	0.100
2.700	-4.211	0.100
2.800	-8.413	0.100
2.900	-7.489	0.100
3.000	-23.167	0.100
3.100	3.003	0.100
3.200	-10.044	0.099
3.300	-17.010	0.100
3.400	3.812	0.099
3.500	-9.925	0.099
3.600	-12.494	0.100
3.700	-4.298	0.100
3.800	-9.866	0.100
3.900	-5.937	0.100
4.000	-7.527	0.100
4.100	-2.213	0.099
4.200	-14.531	0.100
4.300	-2.907	0.100
4.400	-11.146	0.099
4.500	2.273	0.100
4.600	7.306	0.100
4.700	-35.349	0.100
4.800	-4.768	0.100
4.900	-1.344	0.100
5.000	-1.593	0.100
5.100	1.796	0.100
5.200	-4.282	0.100
5.300	-12.951	0.099
5.400	-17.346	0.100
5.500	-23.165	0.100
5.600	-21.920	0.100
5.700	1.050	0.100
5.800	-8.869	0.099
5.900	-26.395	0.100
6.000	-4.857	0.100
6.100	-5.628	0.100
6.200	-4.047	0.100
6.300	-1.957	0.100
6.400	-18.540	0.100
6.500	-27.243	0.100
6.600	-13.057	0.100
6.700	19.986	0.100
6.800	-0.781	0.100
6.900	-1.653	0.100
7.000	-5.840	0.100
7.100	-15.774	0.099
7.200	-17.448	0.100
7.300	-10.645	0.100
7.400	-8.760	0.100
7.500	-9.326	0.100
7.600	-0.001	0.100
7.700	-12.847	0.100
7.800	-14.460	0.100
7.900	-12.413	0.100
8.000	-1.159	0.100
8.100	4.244	0.100
8.200	-20.737	0.100
8.300	-16.209	0.100
8.400	6.889	0.100
8.500	-29.386	0.100
8.600	-13.808	0.100
8.700	15.358	0.100
8.800	-6.691	0.100
8.900	-32.493	0.099
9.000	8.213	0.100
9.100	-14.823	0.100
9.200	-15.831	0.099
9.300	-22.530	0.099
9.400	-15.767	0.099
9.500	3.917	0.100
9.600	-4.879	0.100
9.700	-30.412	0.100
9.800	-9.974	0.100
9.900	-17.866	0.100
10.000	-13.476	0.099
10.100	-29.596	0.099
10.200	2.629	0.100
10.300	-12.946	0.100
10.400	-28.821	0.100
10.500	-9.054	0.100
10.600	-14.834	0.099
10.700	4.553	0.100
10.800	-17.195	0.100
10.900	-3.912	0.100
11.000	-15.194	0.100
11.100	-5.568	0.100
11.200	-1.429	0.100
11.300	-7.718	0.099
11.400	-25.203	0.100
11.500	-2.392	0.100
11.600	-17.143	0.100
11.700	-12.343	0.100
11.800	0.474	0.100
11.900	-1.221	0.100
12.000	-8.323	0.099
12.100	-7.559	0.100
12.200	-18.173	0.100
12.300	3.019	0.100
12.400	3.842	0.100
12.500	-6.732	0.100
12.600	-5.508	0.100
12.700	-10.968	0.099
12.800	-17.529	0.100
12.900	-19.596	0.100
13.000	-11.644	0.099
13.100	-3.597	0.100
13.200	-17.886	0.099
13.300	-6.264	0.100
13.400	-0.186	0.100
13.500	-0.261	0.100
13.600	-10.460	0.099
13.700	-18.225	0.100
13.800	-14.273	0.100
13.900	-2.299	0.100
14.000	-21.956	0.100
14.100	-12.082	0.100
14.200	-5.210	0.100
14.300	-14.900	0.100
14.400	-17.187	0.100
14.500	-8.250	0.100
14.600	-4.741	0.100
14.700	-8.152	0.099
14.800	-1.867	0.100
14.900	-15.105	0.100
15.000	-11.931	0.100
15.100	-4.350	0.100
15.200	-20.940	0.100
15.300	-2.162	0.100
15.400	-21.490	0.099
15.500	-4.053	0.100
15.600	-16.585	0.100
15.700	-10.413	0.100
15.800	-15.509	0.099
15.900	9.365	0.100
16.000	-22.089	0.100
16.100	-9.801	0.100
16.200	-12.501	0.100
16.300	-11.716	0.099
16.400	-14.613	0.100
16.500	-24.786	0.099
16.600	-4.480	0.100
16.700	10.237	0.099
16.800	-7.089	0.100
16.900	-6.054	0.100
17.000	-12.210	0.100
17.100	-1.581	0.099
17.200	-2.539	0.100
17.300	-8.040	0.100
17.400	-18.873	0.100
17.500	0.737	0.100
17.600	-21.801	0.099
17.700	-7.686	0.100
17.800	-4.309	0.100
17.900	-1.590	0.100
18.000	6.222	0.100
18.100	1.051	0.100
18.200	-10.993	0.100
18.300	-15.189	0.100
18.400	-17.409	0.100
18.500	-1.059	0.100
18.600	-14.637	0.100
18.700	6.615	0.100
18.800	-31.302	0.100
18.900	-4.495	0.100
19.000	-1.124	0.100
19.100	-27.374	0.100
19.200	-11.993	0.100
19.300	-35.148	0.100
19.400	-20.234	0.100
19.500	19.322	0.100
19.600	-3.449	0.100
19.700	-9.913	0.100
19.800	-13.841	0.100
19.900	-27.868	0.100
20.000	5.273	0.100
20.100	-9.696	0.100
20.200	-22.248	0.100
20.300	-4.302	0.100
20.400	5.841	0.100
20.500	-20.817	0.100
20.600	-11.162	0.100
20.700	3.985	0.100
20.800	-9.218	0.100
20.900	-6.939	0.100
21.000	-12.709	0.100
21.100	-12.789	0.100
21.200	-7.640	0.100
21.300	-19.235	0.100
21.400	-30.432	0.100
21.500	4.082	0.100
21.600	-3.000	0.100
21.700	-9.317	0.100
21.800	-28.930	0.100
21.900	-8.564	0.100
22.000	-8.226	0.100
22.100	-19.122	0.100
22.200	-13.825	0.100
22.300	-6.371	0.100
22.400	-14.845	0.100
22.500	-7.017	0.100
22.600	-12.525	0.100
22.700	-16.399	0.100
22.800	-19.472	0.099
22.900	-1.314	0.100
23.000	-18.240	0.100
23.100	-9.022	0.100
23.200	-10.827	0.100
23.300	0.130	0.100
23.400	-17.038	0.100
23.500	-7.967	0.100
23.600	-6.091	0.100
23.700	-4.699	0.100
23.800	-24.409	0.100
23.900	-8.385	0.100
24.000	-15.511	0.100
24.100	-9.649	0.100
24.200	-20.670	0.100
24.300	-5.893	0.100
24.400	-2.976	0.100
24.500	-6.660	0.100
24.600	-1.994	0.100
24.700	-18.565	0.100
24.800	-14.621	0.100
24.900	-18.399	0.100
25.000	5.184	0.100
25.100	-7.258	0.100
25.200	-3.417	0.100
25.300	0.550	0.100
25.400	-16.077	0.100
25.500	-10.370	0.100
25.600	-4.783	0.100
25.700	-8.056	0.100
25.800	-9.493	0.100
25.900	-12.489	0.100
26.000	-11.406	0.100
26.100	-39.827	0.100
26.200	-6.442	0.100
26.300	4.697	0.100
26.400	4.435	0.100
26.500	-5.140	0.100
26.600	4.492	0.100
26.700	-14.123	0.100
26.800	-11.945	0.100
26.900	-3.450	0.100
27.000	-17.511	0.100
27.100	-7.853	0.100
27.200	-1.804	0.100
27.300	-9.938	0.100
27.400	-23.374	0.100
27.500	-7.305	0.100
27.600	-11.369	0.100
27.700	-12.192	0.100
27.800	-9.929	0.100
27.900	-16.993	0.100
28.000	-11.803	0.100
28.100	-20.606	0.100
28.200	1.881	0.100
28.300	-2.726	0.100
28.400	-6.016	0.100
28.500	-4.333	0.100
28.600	-17.690	0.100
28.700	-26.121	0.100
28.800	-12.762	0.100
28.900	-19.200	0.100
29.000	1.527	0.100
29.100	-10.636	0.100
29.200	-16.264	0.100
29.300	-4.896	0.100
29.400	-17.787	0.100
29.500	-2.064	0.100
29.600	20.053	0.100
29.700	17.274	0.100
29.800	2.962	0.100
29.900	-4.470	0.100
30.000	12.680	0.100
30.100	3.946	0.100
30.200	20.920	0.100
30.300	-10.894	0.100
30.400	21.828	0.100
30.500	20.321	0.100
30.600	27.206	0.100
30.700	25.833	0.100
30.800	17.358	0.100
30.900	13.945	0.100
31.000	41.886	0.100
31.100	27.123	0.100
31.200	12.251	0.100
31.300	21.917	0.100
31.400	8.412	0.100
31.500	23.009	0.100
31.600	21.470	0.100
31.700	39.540	0.100
31.800	33.321	0.100
31.900	33.426	0.100
32.000	27.092	0.100
32.100	25.131	0.100
32.200	29.224	0.100
32.300	13.770	0.100
32.400	12.763	0.100
32.500	34.987	0.100
32.600	9.517	0.100
32.700	26.985	0.100
32.800	32.088	0.100
32.900	4.627	0.100
33.000	-13.342	0.100
33.100	23.151	0.100
33.200	39.438	0.100
33.300	9.170	0.100
33.400	16.613	0.100
33.500	26.041	0.100
33.600	14.209	0.100
33.700	8.370	0.100
33.800	9.515	0.100
33.900	11.499	0.100
34.000	13.619	0.100
34.100	17.540	0.100
34.200	13.308	0.100
34.300	18.011	0.100
34.400	16.351	0.100
34.500	21.024	0.100
34.600	12.884	0.100
34.700	7.539	0.100
34.800	12.904	0.100
34.900	26.844	0.100
35.000	5.870	0.100
35.100	9.266	0.100
35.200	12.337	0.100
35.300	13.024	0.100
35.400	4.399	0.100
35.500	38.936	0.100
35.600	10.540	0.100
35.700	17.641	0.100
35.800	25.233	0.100
35.900	30.279	0.100
36.000	7.014	0.100
36.100	6.345	0.100
36.200	8.198	0.100
36.300	18.129	0.100
36.400	12.859	0.100
36.500	20.536	0.100
36.600	13.240	0.100
36.700	23.216	0.100
36.800	20.678	0.100
36.900	17.740	0.100
37.000	12.697	0.100
37.100	21.464	0.100
37.200	13.315	0.100
37.300	19.366	0.100
37.400	24.226	0.100
37.500	15.481	0.100
37.600	39.204	0.100
37.700	33.889	0.100
37.800	10.088	0.100
37.900	29.033	0.100
38.000	26.551	0.100
38.100	25.792	0.100
38.200	36.527	0.100
38.300	14.784	0.100
38.400	30.835	0.100
38.500	22.197	0.100
38.600	22.721	0.100
38.700	30.007	0.100
38.800	16.713	0.100
38.900	38.151	0.100
39.000	26.555	0.100
39.100	48.081	0.100
39.200	21.984	0.100
39.300	20.909	0.100
39.400	31.846	0.100
39.500	31.213	0.100
39.600	24.632	0.100
39.700	35.987	0.100
39.800	44.663	0.100
39.900	30.270	0.100
40.000	13.781	0.100
40.100	41.217	0.100
40.200	27.917	0.100
40.300	28.857	0.100
40.400	37.903	0.100
40.500	23.702	0.100
40.600	35.991	0.100
40.700	29.350	0.100
40.800	35.718	0.100
40.900	34.059	0.100
41.000	47.593	0.100
41.100	31.886	0.100
41.200	28.865	0.100
41.300	34.675	0.100
41.400	28.637	0.100
41.500	29.779	0.100
41.600	27.322	0.100
41.700	29.947	0.100
41.800	35.523	0.100
41.900	35.702	0.100
42.000	45.330	0.100
42.100	48.251	0.100
42.200	29.520	0.100
42.300	41.971	0.100
42.400	39.268	0.100
42.500	56.074	0.100
42.600	30.066	0.100
42.700	34.496	0.100
42.800	36.135	0.100
42.900	35.123	0.100
43.000	36.631	0.100
43.100	53.469	0.100
43.200	46.180	0.100
43.300	55.374	0.100
43.400	33.940	0.100
43.500	39.751	0.100
43.600	46.058	0.100
43.700	49.209	0.100
43.800	46.100	0.100
43.900	34.496	0.100
44.000	53.478	0.100
44.100	38.638	0.100
44.200	28.187	0.100
44.300	53.539	0.100
44.400	40.112	0.100
44.500	36.211	0.100
44.600	42.630	0.100
44.700	34.589	0.100
44.800	57.052	0.100
44.900	38.615	0.100
45.000	37.428	0.100
45.100	36.814	0.100
45.200	52.876	0.100
45.300	29.300	0.100
45.400	42.704	0.100
45.500	41.104	0.100
45.600	44.058	0.100
45.700	39.562	0.100
45.800	56.738	0.100
45.900	39.956	0.100
46.000	39.505	0.100
46.100	55.148	0.100
46.200	39.855	0.100
46.300	29.150	0.100
46.400	36.057	0.100
46.500	48.031	0.100
46.600	38.434	0.100
46.700	31.778	0.100
46.800	46.868	0.100
46.900	43.894	0.100
47.000	44.734	0.100
47.100	27.728	0.100
47.200	52.833	0.100
47.300	34.459	0.100
47.400	25.149	0.100
47.500	48.077	0.100
47.600	50.137	0.100
47.700	43.320	0.100
47.800	41.114	0.100
47.900	40.184	0.100
48.000	49.176	0.100
48.100	40.324	0.100
48.200	51.559	0.100
48.300	45.575	0.100
48.400	24.364	0.100
48.500	43.299	0.100
48.600	39.201	0.100
48.700	49.809	0.100
48.800	37.277	0.100
48.900	38.857	0.100
49.000	55.906	0.100
49.100	39.479	0.100
49.200	38.739	0.100
49.300	23.791	0.100
49.400	38.903	0.100
49.500	61.966	0.100
49.600	38.688	0.100
49.700	34.863	0.100
49.800	47.550	0.100
49.900	38.597	0.100
50.000	40.150	0.100
50.100	40.313	0.100
50.200	42.690	0.100
50.300	31.035	0.100
50.400	32.370	0.100
50.500	23.992	0.100
50.600	29.681	0.100
50.700	58.887	0.100
50.800	63.070	0.100
50.900	31.704	0.100
51.000	42.836	0.100
51.100	38.929	0.100
51.200	43.650	0.100
51.300	73.971	0.100
51.400	30.260	0.100
51.500	36.659	0.100
51.600	41.007	0.100
51.700	41.665	0.100
51.800	46.765	0.100
51.900	43.607	0.100
52.000	15.552	0.100
52.100	36.204	0.100
52.200	45.832	0.100
52.300	43.951	0.100
52.400	40.810	0.100
52.500	40.144	0.100
52.600	45.770	0.100
52.700	31.595	0.100
52.800	46.053	0.100
52.900	38.183	0.100
53.000	31.414	0.100
53.100	48.944	0.100
53.200	37.803	0.100
53.300	25.879	0.100
53.400	47.601	0.100
53.500	36.889	0.100
53.600	31.147	0.100
53.700	44.110	0.100
53.800	51.328	0.100
53.900	53.082	0.100
54.000	18.680	0.100
54.100	44.090	0.100
54.200	36.387	0.100
54.300	39.021	0.100
54.400	31.453	0.100
54.500	41.202	0.100
54.600	32.182	0.100
54.700	47.811	0.100
54.800	30.217	0.100
54.900	44.547	0.100
55.000	18.826	0.100
55.100	66.804	0.100
55.200	13.240	0.100
55.300	36.117	0.100
55.400	29.587	0.100
55.500	47.143	0.100
55.600	48.715	0.100
55.700	46.324	0.100
55.800	37.933	0.100
55.900	44.534	0.100
56.000	35.907	0.100
56.100	36.664	0.100
56.200	40.699	0.100
56.300	44.572	0.100
56.400	34.488	0.100
56.500	29.674	0.100
56.600	29.687	0.100
56.700	43.796	0.100
56.800	22.411	0.100
56.900	38.806	0.100
57.000	32.210	0.100
57.100	54.503	0.100
57.200	38.481	0.100
57.300	54.687	0.100
57.400	27.858	0.100
57.500	50.791	0.100
57.600	61.477	0.100
57.700	35.811	0.100
57.800	30.966	0.100
57.900	25.797	0.100
58.000	43.534	0.100
58.100	33.422	0.100
58.200	51.195	0.100
58.300	44.368	0.100
58.400	32.344	0.100
58.500	34.002	0.100
58.600	42.079	0.100
58.700	41.519	0.100
58.800	52.935	0.100
58.900	42.078	0.100
59.000	35.790	0.100
59.100	48.326	0.100
59.200	47.873	0.100
59.300	24.385	0.100
59.400	39.982	0.100
59.500	20.601	0.100
59.600	51.573	0.100
59.700	45.486	0.100
59.800	37.368	0.100
59.900	33.912	0.100
60.000	45.582	0.100
60.100	61.627	0.100
60.200	46.370	0.100
60.300	38.768	0.100
60.400	36.699	0.100
60.500	48.287	0.100
60.600	30.760	0.100
60.700	41.740	0.100
60.800	38.770	0.100
60.900	41.997	0.100
61.000	31.334	0.100
61.100	37.919	0.100
61.200	34.485	0.100
61.300	45.764	0.100
61.400	39.005	0.100
61.500	43.884	0.100
61.600	30.775	0.100
61.700	54.452	0.100
61.800	27.948	0.100
61.900	49.081	0.100
62.000	41.561	0.100
62.100	38.900	0.100
62.200	40.992	0.100
62.300	38.360	0.100
62.400	43.999	0.100
62.500	37.830	0.100
62.600	46.507	0.100
62.700	35.733	0.100
62.800	37.234	0.100
62.900	40.091	0.100
63.000	40.223	0.100
63.100	35.190	0.100
63.200	40.442	0.100
63.300	51.882	0.100
63.400	40.000	0.100
63.500	34.997	0.100
63.600	37.423	0.100
63.700	32.605	0.100
63.800	41.919	0.100
63.900	22.996	0.100
64.000	48.208	0.100
64.100	39.516	0.100
64.200	28.831	0.100
64.300	39.293	0.100
64.400	64.202	0.100
64.500	42.207	0.100
64.600	25.706	0.100
64.700	51.764	0.100
64.800	44.807	0.100
64.900	37.566	0.100
65.000	32.819	0.100
65.100	48.637	0.100
65.200	43.450	0.100
65.300	36.675	0.100
65.400	28.323	0.100
65.500	45.400	0.100
65.600	37.189	0.100
65.700	55.562	0.100
65.800	45.720	0.100
65.900	41.649	0.100
66.000	54.786	0.100
66.100	30.297	0.100
66.200	41.629	0.100
66.300	40.398	0.100
66.400	57.244	0.100
66.500	29.486	0.100
66.600	34.235	0.100
66.700	33.813	0.100
66.800	44.540	0.100
66.900	46.224	0.100
67.000	26.984	0.100
67.100	42.566	0.100
67.200	39.920	0.100
67.300	41.530	0.100
67.400	43.768	0.100
67.500	37.427	0.100
67.600	45.718	0.100
67.700	37.375	0.100
67.800	32.653	0.100
67.900	48.213	0.100
68.000	34.703	0.100
68.100	31.710	0.100
68.200	54.593	0.100
68.300	38.568	0.100
68.400	46.639	0.100
68.500	44.971	0.100
68.600	41.419	0.100
68.700	33.560	0.100
68.800	36.313	0.100
68.900	50.086	0.100
69.000	44.120	0.100
69.100	32.763	0.100
69.200	40.647	0.100
69.300	38.382	0.100
69.400	50.239	0.100
69.500	47.163	0.100
69.600	47.327	0.100
69.700	47.360	0.100
69.800	26.572	0.100
69.900	40.983	0.100
70.000	48.098	0.100
70.100	28.177	0.100
70.200	51.062	0.100
70.300	31.464	0.100
70.400	40.726	0.100
70.500	45.801	0.100
70.600	43.613	0.100
70.700	44.648	0.100
70.800	45.055	0.100
70.900	44.819	0.100
71.000	42.032	0.100
71.100	38.976	0.100
71.200	59.114	0.100
71.300	45.715	0.100
71.400	26.348	0.100
71.500	30.542	0.100
71.600	49.720	0.100
71.700	44.274	0.100
71.800	47.513	0.100
71.900	47.015	0.100
72.000	30.393	0.100
72.100	27.102	0.100
72.200	63.296	0.100
72.300	44.713	0.100
72.400	53.009	0.100
72.500	36.575	0.100
72.600	46.373	0.100
72.700	37.849	0.100
72.800	27.752	0.100
72.900	53.923	0.100
73.000	39.655	0.100
73.100	55.460	0.100
73.200	48.736	0.100
73.300	48.371	0.100
73.400	35.742	0.100
73.500	48.970	0.100
73.600	29.488	0.100
73.700	36.962	0.100
73.800	53.482	0.100
73.900	28.006	0.100
74.000	45.138	0.100
74.100	50.778	0.100
74.200	41.750	0.100
74.300	43.482	0.100
74.400	20.789	0.100
74.500	52.773	0.100
74.600	52.592	0.100
74.700	43.177	0.100
74.800	21.874	0.100
74.900	52.443	0.100
75.000	36.329	0.100
75.100	43.623	0.100
75.200	44.435	0.100
75.300	42.575	0.100
75.400	41.893	0.100
75.500	44.481	0.100
75.600	52.304	0.100
75.700	51.276	0.100
75.800	35.480	0.100
75.900	47.806	0.100
76.000	45.971	0.100
76.100	58.828	0.100
76.200	48.388	0.100
76.300	51.747	0.100
76.400	37.148	0.100
76.500	48.380	0.100
76.600	46.729	0.100
76.700	41.350	0.100
76.800	51.877	0.100
76.900	29.371	0.100
77.000	36.195	0.100
77.100	48.438	0.100
77.200	52.634	0.100
77.300	52.321	0.100
77.400	45.203	0.100
77.500	51.457	0.100
77.600	31.052	0.100
77.700	31.253	0.100
77.800	55.232	0.100
77.900	33.905	0.100
78.000	43.868	0.100
78.100	46.296	0.100
78.200	41.885	0.100
78.300	47.338	0.100
78.400	52.608	0.100
78.500	41.054	0.100
78.600	49.345	0.100
78.700	49.905	0.100
78.800	31.248	0.100
78.900	25.538	0.100
79.000	44.474	0.100
79.100	43.178	0.100
79.200	48.834	0.100
79.300	38.944	0.100
79.400	56.918	0.100
79.500	47.236	0.100
79.600	32.898	0.100
79.700	28.281	0.100
79.800	43.445	0.100
79.900	50.242	0.100
80.000	51.038	0.100
80.100	43.731	0.100
80.200	65.164	0.100
80.300	50.422	0.100
80.400	42.519	0.100
80.500	53.697	0.100
80.600	44.580	0.100
80.700	45.018	0.100
80.800	39.732	0.100
80.900	51.468	0.100
81.000	50.285	0.100
81.100	36.618	0.100
81.200	42.058	0.100
81.300	55.266	0.100
81.400	39.268	0.100
81.500	39.604	0.100
81.600	45.006	0.100
81.700	56.881	0.100
81.800	62.143	0.100
81.900	36.100	0.100
82.000	27.317	0.100
82.100	62.659	0.100
82.200	46.758	0.100
82.300	44.805	0.100
82.400	46.885	0.100
82.500	52.801	0.100
82.600	45.705	0.100
82.700	35.660	0.100
82.800	39.413	0.100
82.900	43.556	0.100
83.000	61.283	0.100
83.100	48.589	0.100
83.200	31.200	0.100
83.300	45.946	0.100
83.400	43.713	0.100
83.500	53.960	0.100
83.600	40.596	0.100
83.700	49.625	0.100
83.800	51.849	0.100
83.900	46.309	0.100
84.000	29.026	0.100
84.100	48.676	0.100
84.200	44.016	0.100
84.300	50.886	0.100
84.400	51.956	0.100
84.500	43.829	0.100
84.600	59.640	0.100
84.700	55.584	0.100
84.800	38.676	0.100
84.900	32.174	0.100
85.000	43.366	0.100
85.100	51.998	0.100
85.200	62.106	0.100
85.300	50.911	0.100
85.400	46.235	0.100
85.500	55.327	0.100
85.600	43.622	0.100
85.700	42.954	0.100
85.800	39.553	0.100
85.900	46.609	0.100
86.000	55.252	0.100
86.100	47.830	0.100
86.200	47.473	0.100
86.300	39.883	0.100
86.400	57.315	0.100
86.500	43.674	0.100
86.600	51.285	0.100
86.700	43.611	0.100
86.800	52.285	0.100
86.900	44.382	0.100
87.000	61.176	0.100
87.100	43.072	0.100
87.200	55.750	0.100
87.300	52.794	0.100
87.400	56.887	0.100
87.500	45.814	0.100
87.600	36.852	0.100
87.700	45.971	0.100
87.800	51.597	0.100
87.900	59.208	0.100
88.000	53.895	0.100
88.100	59.058	0.100
88.200	38.202	0.100
88.300	56.974	0.100
88.400	44.127	0.100
88.500	42.056	0.100
88.600	33.048	0.100
88.700	57.880	0.100
88.800	49.221	0.100
88.900	51.811	0.100
89.000	49.553	0.100
89.100	29.625	0.100
89.200	47.985	0.100
89.300	69.385	0.100
89.400	58.296	0.100
89.500	63.593	0.100
89.600	35.459	0.100
89.700	56.601	0.100
89.800	30.193	0.100
89.900	44.627	0.100
90.000	2.616	0.100
90.100	33.285	0.100
90.200	33.603	0.100
90.300	32.865	0.100
90.400	20.954	0.100
90.500	22.227	0.100
90.600	35.459	0.100
90.700	23.283	0.100
90.800	21.293	0.100
90.900	5.335	0.100
91.000	26.643	0.100
91.100	10.755	0.100
91.200	17.888	0.100
91.300	12.900	0.100
91.400	-7.895	0.100
91.500	33.186	0.100
91.600	10.935	0.100
91.700	-5.413	0.100
91.800	2.969	0.100
91.900	-0.815	0.100
92.000	-2.112	0.100
92.100	3.986	0.100
92.200	3.327	0.100
92.300	3.542	0.100
92.400	-21.536	0.100
92.500	-30.068	0.100
92.600	-4.960	0.100
92.700	-6.332	0.100
92.800	9.302	0.100
92.900	2.228	0.100
93.000	-18.865	0.100
93.100	-5.342	0.100
93.200	-3.333	0.100
93.300	17.659	0.100
93.400	-8.409	0.100
93.500	-27.258	0.100
93.600	4.295	0.100
93.700	1.620	0.100
93.800	4.482	0.100
93.900	-2.074	0.100
94.000	-4.816	0.100
94.100	1.372	0.100
94.200	-7.011	0.100
94.300	-11.321	0.100
94.400	-6.856	0.100
94.500	-2.407	0.100
94.600	-2.664	0.100
94.700	11.160	0.100
94.800	4.202	0.100
94.900	-7.237	0.100
95.000	-6.486	0.100
95.100	-4.020	0.100
95.200	5.228	0.100
